timestamp,Fp1,Fp2,F3,Fz,F4,Cz,Pz,Oz
1226923.243055639,-101035.12,-119655.03,-28680.258,-25715.943,-31794.922,-28980.469,-22015.463,-21404.826
1226923.2470556363,-101041.06,-119662.84,-28682.74,-25715.943,-31793.906,-28980.998,-22032.635,-21433.432
1226923.2510556334,-101056.07,-119673.51,-28673.057,-25719.482,-31789.918,-28974.895,-22050.13,-21490.154
1226923.2550556306,-101060.19,-119670.414,-28663.615,-25724.447,-31790.244,-28968.223,-22041.953,-21504.07
1226923.2590556277,-101042.85,-119658.33,-28661.459,-25718.832,-31798.951,-28971.72,-22023.072,-21462.89
1226923.263055625,-101021.53,-119643.35,-28667.236,-25712.12,-31797.648,-28977.336,-22014.854,-21421.957
1226923.267055622,-101027.875,-119652.1,-28672.445,-25712.078,-31790.977,-28977.744,-22023.967,-21425.049
1226923.2710556192,-101054.734,-119674.28,-28670.207,-25718.344,-31788.738,-28973.553,-22038.371,-21465.414
1226923.2750556164,-101068.69,-119682.3,-28667.074,-25724.65,-31796.836,-28971.396,-22039.877,-21492.473
1226923.2790556136,-101059.33,-119672.734,-28670.29,-25723.309,-31806.764,-28977.174,-22028.77,-21470.988
1226923.2830556107,-101041.95,-119661.55,-28677.002,-25716.635,-31808.31,-28983.807,-22024.414,-21443.564
1226923.287055608,-101044.35,-119668.22,-28684.326,-25715.049,-31799.521,-28985.148,-22034.465,-21452.598
1226923.291055605,-101065.39,-119685.43,-28683.105,-25721.232,-31796.104,-28976.074,-22040.365,-21483.969
1226923.2950556022,-101070.88,-119684.25,-28672.852,-25727.744,-31800.334,-28968.1,-22032.715,-21498.17
1226923.2990555994,-101052.94,-119667.04,-28672.242,-25723.43,-31806.275,-28972.656,-22017.863,-21468.262
1226923.3030555965,-101031.82,-119652.23,-28678.955,-25714.805,-31804.973,-28979.086,-22012.045,-21428.916
1226923.3070555937,-101034.95,-119657.516,-28681.193,-25713.584,-31797.16,-28980.754,-22021.12,-21432.414
1226923.3110555909,-101057.26,-119676.76,-28676.514,-25717.326,-31792.604,-28974.977,-22033.203,-21471.64
1226923.315055588,-101065.92,-119684.62,-28671.062,-25723.35,-31800.172,-28970.012,-22028.646,-21494.752
1226923.3190555852,-101045.414,-119671.11,-28673.137,-25719.564,-31803.916,-28972.656,-22011.639,-21454.51
1226923.3230555824,-101026.62,-119658.45,-28682.7,-25712.12,-31805.908,-28979.492,-22005.371,-21419.354
1226923.3270555793,-101035.445,-119665.41,-28690.39,-25713.42,-31799.357,-28981.895,-22018.637,-21433.676
1226923.3310555764,-101060.71,-119681.195,-28687.988,-25720.582,-31795.818,-28977.662,-22035.361,-21462.484
1226923.3350555736,-101065.96,-119680.14,-28680.176,-25722.82,-31797.568,-28972.617,-22031.25,-21477.744
1226923.3390555708,-101043.945,-119662.52,-28680.664,-25719.688,-31800.254,-28976.318,-22017.783,-21458.375
1226923.343055568,-101025.48,-119647.1,-28688.518,-25714.072,-31798.87,-28981.242,-22010.459,-21423.91
1226923.347055565,-101031.87,-119653.28,-28691.244,-25711.467,-31793.336,-28980.592,-22019.775,-21430.217
1226923.3510555623,-101056.36,-119671.06,-28687.826,-25717.734,-31796.55,-28974.854,-22033.57,-21474.041
1226923.3550555594,-101065.92,-119673.47,-28681.357,-25724.57,-31802.043,-28967.896,-22023.193,-21479.248
1226923.3590555566,-101049.08,-119658.86,-28681.193,-25722.047,-31807.617,-28971.72,-22002.727,-21440.39
1226923.3630555538,-101029.55,-119648.4,-28686.973,-25715.781,-31807.781,-28978.436,-21998.455,-21417.4
1226923.367055551,-101030.805,-119649.945,-28690.674,-25714.193,-31797.568,-28977.703,-22006.797,-21426.758
1226923.371055548,-101046.76,-119654.22,-28685.914,-25716.758,-31790.447,-28970.703,-22016.357,-21458.62
1226923.3750555452,-101056.52,-119656.05,-28683.105,-25724.041,-31793.295,-28967.814,-22010.377,-21471.72
1226923.3790555424,-101037.97,-119643.44,-28685.67,-25721.436,-31800.537,-28972.25,-21996.95,-21442.953
1226923.3830555396,-101015.51,-119627.73,-28690.227,-25713.95,-31801.637,-28980.389,-21996.582,-21412.232
1226923.3870555367,-101027.875,-119639.164,-28694.297,-25713.705,-31801.637,-28984.05,-22013.592,-21419.922
1226923.391055534,-101050.17,-119657.35,-28692.303,-25718.791,-31800.822,-28979.248,-22027.832,-21456.096
1226923.395055531,-101064.21,-119666.47,-28684.164,-25724.121,-31802.328,-28973.268,-22020.508,-21476.318
1226923.3990555282,-101055.26,-119660.37,-28687.95,-25723.064,-31809.855,-28980.062,-22011.436,-21456.26
1226923.4030555254,-101034.14,-119646.04,-28692.668,-25717.57,-31810.182,-28988.12,-22007.773,-21416.79
1226923.4070555225,-101033.49,-119646.77,-28693.197,-25715.21,-31803.06,-28986.777,-22013.225,-21418.254
1226923.4110555197,-101056.4,-119660.81,-28691.367,-25721.68,-31798.951,-28980.021,-22022.95,-21450.277
1226923.4150555169,-101064.21,-119665.49,-28685.14,-25725.791,-31805.137,-28973.309,-22014.324,-21460.205
1226923.419055514,-101045.58,-119650.84,-28685.67,-25722.494,-31812.135,-28981.365,-22000.408,-21425.375
1226923.4230555112,-101028.28,-119640.266,-28693.604,-25715.984,-31810.996,-28989.014,-21995.605,-21386.68
1226923.4270555084,-101038.45,-119646.734,-28696.615,-25715.781,-31806.275,-28988.445,-22005.656,-21400.229
1226923.4310555055,-101059.9,-119659.8,-28695.11,-25723.145,-31802.857,-28981.73,-22019.654,-21453.086
1226923.4350555027,-101065.31,-119662.44,-28688.111,-25729.004,-31805.176,-28975.912,-22016.074,-21472.332
1226923.4390554999,-101041.95,-119642.22,-28686.973,-25724.447,-31807.252,-28979.168,-22000.326,-21438.314
1226923.443055497,-101018.27,-119626.67,-28691.53,-25715.984,-31809.246,-28988.73,-21995.2,-21407.512
1226923.4470554942,-101024.336,-119631.88,-28697.227,-25714.316,-31806.885,-28990.316,-22006.877,-21408.773
1226923.4510554913,-101047.08,-119645.51,-28692.1,-25720.867,-31805.908,-28985.068,-22016.969,-21442.709
1226923.4550554885,-101055.016,-119648.484,-28681.64,-25724.121,-31808.799,-28979.533,-22013.51,-21472.25
1226923.4590554857,-101036.336,-119638.15,-28681.682,-25720.826,-31813.803,-28983.115,-21997.559,-21439.494
1226923.4630554828,-101018.84,-119622.07,-28687.785,-25714.764,-31812.744,-28991.049,-21992.676,-21398.438
1226923.46705548,-101024.91,-119628.55,-28689.535,-25714.52,-31807.414,-28992.676,-22003.744,-21403.117
1226923.471055477,-101046.8,-119644.01,-28686.768,-25719.564,-31804.729,-28988.525,-22018.027,-21443.035
1226923.475055474,-101056.766,-119648.6,-28681.52,-25725.22,-31811.605,-28983.725,-22013.104,-21457.275
1226923.4790554713,-101039.02,-119634.41,-28682.008,-25721.64,-31818.238,-28987.06,-21999.023,-21428.467
1226923.4830554684,-101024.17,-119623.375,-28687.217,-25714.396,-31813.803,-28991.496,-21992.96,-21393.922
1226923.4870554656,-101033.33,-119634.16,-28692.1,-25714.396,-31810.344,-28991.008,-22004.232,-21405.682
1226923.4910554627,-101054.445,-119652.875,-28692.506,-25720.379,-31807.617,-28985.148,-22015.666,-21444.541
1226923.49505546,-101061.24,-119655.03,-28686.688,-25724.61,-31807.334,-28978.516,-22005.78,-21452.19
1226923.499055457,-101046.59,-119637.13,-28687.582,-25722.412,-31815.674,-28984.54,-21993.246,-21421.998
1226923.5030554542,-101035.2,-119628.87,-28697.266,-25717.896,-31820.883,-28993.408,-21993.652,-21394.531
1226923.5070554514,-101047.94,-119640.836,-28703.166,-25718.059,-31817.262,-28994.305,-22011.883,-21424.805
1226923.5110554486,-101064.5,-119655.07,-28696.615,-25721.885,-31814.576,-28989.422,-22024.984,-21462.078
1226923.5150554457,-101071.45,-119657.15,-28688.6,-25726.848,-31821.533,-28985.23,-22015.219,-21466.758
1226923.519055443,-101056.16,-119644.53,-28691.773,-25724.691,-31828.29,-28989.828,-22000.164,-21434.652
1226923.52305544,-101035.65,-119630.82,-28698.406,-25718.14,-31825.766,-28996.217,-21997.559,-21399.17
1226923.5270554372,-101042.04,-119638.8,-28701.213,-25718.344,-31820.762,-28996.664,-22014.04,-21418.54
1226923.5310554344,-101059.05,-119654.79,-28694.744,-25721.72,-31814.209,-28993.979,-22031.78,-21465.496
1226923.5350554315,-101061.41,-119656.78,-28687.012,-25725.547,-31815.309,-28990.928,-22027.549,-21471.762
1226923.5390554287,-101044.84,-119643.48,-28688.885,-25722.332,-31818.076,-28997.152,-22016.113,-21440.879
1226923.5430554259,-101026.9,-119631.59,-28694.703,-25714.6,-31817.832,-29003.012,-22010.295,-21407.432
1226923.547055423,-101035.36,-119640.99,-28697.592,-25715.373,-31816.611,-29004.477,-22019.248,-21412.518
1226923.5510554202,-101057.09,-119660.93,-28691.895,-25722.738,-31815.512,-28998.658,-22029.95,-21442.871
1226923.5550554174,-101064.62,-119666.34,-28683.96,-25727.336,-31821.86,-28992.676,-22020.346,-21455.12
1226923.5590554145,-101044.6,-119648.4,-28683.39,-25723.918,-31823.406,-28995.402,-21999.96,-21421.348
1226923.5630554117,-101024.82,-119631.72,-28689.82,-25718.426,-31820.762,-29000.652,-21989.625,-21373.7
1226923.5670554088,-101031.17,-119633.1,-28695.03,-25717.205,-31815.635,-28999.512,-22000.814,-21383.627
1226923.571055406,-101053.23,-119647.055,-28691.814,-25722.941,-31811.2,-28992.555,-22011.354,-21423.584
1226923.5750554032,-101058.19,-119645.47,-28685.344,-25725.953,-31811.605,-28986.857,-22000.896,-21431.723
1226923.5790554003,-101037.36,-119625.94,-28685.264,-25720.947,-31818.889,-28991.578,-21985.352,-21398.602
1226923.5830553975,-101015.95,-119608.85,-28692.18,-25714.6,-31817.588,-28998.496,-21980.348,-21361.207
1226923.5870553947,-101023.32,-119616.375,-28695.11,-25714.031,-31814.453,-28998.252,-21993.49,-21375.488
1226923.5910553918,-101049.484,-119645.555,-28692.383,-25720.785,-31814.414,-28994.508,-22012.29,-21428.955
1226923.595055389,-101057.984,-119652.71,-28685.588,-25725.994,-31818.686,-28990.44,-22006.959,-21440.715
1226923.5990553861,-101038.375,-119635.055,-28687.135,-25723.023,-31823.162,-28994.06,-21993.45,-21407.959
1226923.6030553833,-101022.914,-119620.81,-28697.55,-25717.611,-31819.906,-29000.611,-21990.805,-21383.342
1226923.6070553805,-101032.27,-119626.51,-28704.428,-25717.652,-31814.82,-29001.059,-22006.43,-21399.008
1226923.6110553776,-101053.02,-119645.1,-28699.748,-25721.518,-31814.738,-28994.59,-22022.014,-21440.594
1226923.6150553746,-101058.88,-119646.9,-28691.082,-25724.365,-31819.297,-28989.746,-22016.766,-21461.346
1226923.6190553717,-101041.34,-119636.03,-28692.22,-25720.5,-31824.3,-28993.572,-22002.117,-21429.81
1226923.623055369,-101030.44,-119635.79,-28700.725,-25716.717,-31827.557,-29001.22,-22002.197,-21399.658
1226923.627055366,-101049.89,-119655.97,-28707.643,-25719.97,-31823.895,-29001.547,-22018.31,-21421.592
1226923.6310553632,-101072.35,-119672.33,-28703.492,-25725.953,-31819.703,-28993.896,-22029.217,-21462.973
1226923.6350553604,-101079.15,-119675.83,-28697.674,-25731.568,-31826.01,-28990.846,-22020.06,-21465.414
1226923.6390553575,-101059.414,-119657.48,-28699.219,-25728.395,-31834.066,-28994.834,-22002.441,-21423.057
1226923.6430553547,-101038.7,-119639.04,-28706.096,-25722.738,-31834.19,-29002.076,-22000.0,-21393.352
1226923.6470553519,-101044.195,-119648.56,-28707.44,-25722.006,-31825.44,-28999.92,-22009.238,-21399.537
1226923.651055349,-101069.3,-119668.336,-28702.76,-25727.703,-31823.691,-28993.531,-22017.01,-21428.916
1226923.6550553462,-101080.57,-119671.76,-28699.504,-25731.04,-31823.65,-28989.707,-22008.139,-21443.36
1226923.6590553434,-101061.445,-119652.555,-28697.021,-25725.953,-31822.998,-28995.443,-21992.473,-21413.33
1226923.6630553405,-101044.31,-119638.836,-28703.613,-25720.5,-31824.098,-29002.523,-21988.486,-21377.035
1226923.6670553377,-101046.59,-119645.76,-28707.764,-25719.28,-31818.727,-29000.326,-21997.682,-21387.004
1226923.6710553349,-101067.586,-119662.97,-28703.492,-25725.18,-31816.691,-28992.84,-22007.732,-21424.602
1226923.675055332,-101072.06,-119663.25,-28697.186,-25729.818,-31818.523,-28986.654,-22000.205,-21437.541
1226923.6790553292,-101048.42,-119640.79,-28698.527,-25725.791,-31821.982,-28989.87,-21984.416,-21405.03
1226923.6830553263,-101034.23,-119626.19,-28704.998,-25720.338,-31821.045,-28997.07,-21977.459,-21361.004
1226923.6870553235,-101041.79,-119634.28,-28707.725,-25718.629,-31814.453,-28993.164,-21985.271,-21366.252
1226923.6910553207,-101067.67,-119655.234,-28706.422,-25725.912,-31818.482,-28988.281,-21998.496,-21408.367
1226923.6950553178,-101075.69,-119659.8,-28703.004,-25730.186,-31822.754,-28985.23,-21994.305,-21430.625
1226923.699055315,-101054.98,-119642.09,-28705.527,-25725.83,-31825.521,-28991.172,-21981.854,-21402.71
1226923.7030553122,-101034.51,-119627.12,-28711.59,-25720.379,-31823.975,-28998.455,-21978.354,-21369.71
1226923.7070553093,-101039.68,-119634.32,-28715.17,-25719.97,-31816.773,-28998.088,-21990.887,-21392.09
1226923.7110553065,-101057.54,-119645.51,-28710.613,-25725.506,-31816.447,-28994.914,-22005.332,-21440.39
1226923.7150553036,-101067.55,-119645.63,-28706.219,-25730.877,-31820.883,-28990.234,-21996.826,-21450.033
1226923.7190553008,-101058.44,-119634.56,-28708.74,-25727.58,-31823.61,-28996.094,-21984.863,-21414.674
1226923.723055298,-101034.1,-119621.83,-28711.63,-25719.32,-31822.47,-29002.686,-21985.027,-21386.23
1226923.7270552951,-101021.89,-119621.586,-28706.543,-25716.635,-31817.994,-29002.238,-21998.861,-21399.049
1226923.7310552923,-101029.625,-119628.26,-28697.062,-25721.477,-31813.111,-28997.6,-22009.115,-21434.123
1226923.7350552895,-101032.59,-119623.17,-28687.826,-25724.65,-31816.041,-28993.531,-22005.656,-21447.754
1226923.7390552866,-101014.57,-119608.85,-28686.809,-25720.297,-31822.918,-28996.217,-21990.234,-21408.773
1226923.7430552838,-100999.516,-119603.195,-28693.523,-25715.008,-31826.498,-29003.947,-21990.031,-21377.809
1226923.747055281,-101004.93,-119606.164,-28694.824,-25715.658,-31818.238,-29005.78,-22008.139,-21400.717
1226923.7510552781,-101020.06,-119617.35,-28688.03,-25720.053,-31815.879,-29000.693,-22021.201,-21440.959
1226923.7550552753,-101012.01,-119609.22,-28677.451,-25722.494,-31822.186,-28995.932,-22011.842,-21444.133
1226923.7590552722,-100987.63,-119590.055,-28673.951,-25716.594,-31825.44,-28998.617,-21992.717,-21405.559
1226923.7630552694,-100960.29,-119574.67,-28673.26,-25709.473,-31821.982,-29003.785,-21988.404,-21371.705
1226923.7670552665,-100962.12,-119578.25,-28668.54,-25708.984,-31817.262,-29003.174,-22004.518,-21394.248
1226923.7710552637,-100982.625,-119593.875,-28661.418,-25716.188,-31817.994,-28996.867,-22020.02,-21443.115
1226923.7750552609,-100979.05,-119588.79,-28649.414,-25719.523,-31825.115,-28992.555,-22012.777,-21451.498
1226923.779055258,-100961.39,-119570.195,-28645.834,-25716.025,-31829.998,-28992.799,-21989.828,-21402.996
1226923.7830552552,-100936.73,-119549.69,-28646.12,-25707.275,-31827.719,-28996.014,-21978.557,-21359.375
1226923.7870552524,-100932.17,-119545.74,-28642.54,-25705.607,-31820.312,-28994.102,-21987.021,-21374.635
1226923.7910552495,-100948.57,-119559.78,-28636.15,-25713.135,-31818.97,-28989.014,-22000.0,-21422.12
1226923.7950552467,-100958.7,-119564.01,-28628.379,-25718.14,-31825.684,-28983.36,-21994.06,-21431.64
1226923.7990552438,-100933.92,-119550.58,-28626.262,-25714.152,-31832.887,-28985.922,-21977.377,-21394.492
1226923.803055241,-100920.66,-119543.74,-28630.697,-25709.393,-31833.334,-28992.27,-21975.668,-21364.99
1226923.8070552382,-100924.484,-119550.91,-28628.174,-25709.107,-31828.94,-28990.928,-21992.107,-21395.264
1226923.8110552353,-100947.266,-119571.21,-28624.023,-25716.514,-31830.486,-28985.271,-22005.576,-21432.129
1226923.8150552325,-100962.57,-119583.91,-28620.77,-25724.041,-31840.332,-28982.016,-21998.252,-21434.896
1226923.8190552297,-100938.32,-119568.0,-28620.973,-25720.053,-31845.988,-28984.783,-21979.941,-21396.363
1226923.8230552268,-100915.445,-119553.1,-28622.885,-25710.531,-31844.605,-28990.684,-21976.97,-21359.742
1226923.827055224,-100923.625,-119561.41,-28623.17,-25710.002,-31841.35,-28991.252,-21993.164,-21376.018
1226923.8310552211,-100947.31,-119580.61,-28616.172,-25715.902,-31840.781,-28984.945,-22005.9,-21420.41
1226923.8350552183,-100960.37,-119592.77,-28610.596,-25723.268,-31850.383,-28981.486,-21999.838,-21431.846
1226923.8390552155,-100949.586,-119582.195,-28615.195,-25720.785,-31855.754,-28987.672,-21985.922,-21400.92
1226923.8430552126,-100927.125,-119562.3,-28619.71,-25713.096,-31851.28,-28995.2,-21987.346,-21376.832
1226923.8470552098,-100936.37,-119573.53,-28621.338,-25712.646,-31847.129,-28993.287,-22000.205,-21393.31
1226923.851055207,-100969.32,-119597.414,-28625.123,-25721.396,-31846.232,-28986.004,-22010.662,-21432.781
1226923.8550552041,-100975.18,-119596.6,-28620.85,-25725.262,-31849.65,-28981.771,-22002.402,-21439.697
1226923.8590552013,-100949.99,-119577.766,-28623.658,-25720.867,-31856.69,-28986.166,-21985.596,-21397.87
1226923.8630551985,-100932.58,-119566.05,-28625.855,-25714.355,-31852.703,-28991.293,-21979.086,-21360.637
1226923.8670551956,-100947.31,-119584.72,-28625.041,-25715.049,-31849.814,-28989.666,-21987.916,-21376.832
1226923.8710551928,-100985.805,-119621.46,-28621.299,-25724.244,-31852.5,-28981.771,-21993.45,-21404.582
1226923.87505519,-100998.21,-119629.84,-28616.496,-25730.469,-31855.469,-28977.012,-21982.871,-21414.55
1226923.879055187,-100981.94,-119609.87,-28618.857,-25724.773,-31857.586,-28981.445,-21968.344,-21387.207
1226923.8830551843,-100972.336,-119605.31,-28628.012,-25721.355,-31858.643,-28988.648,-21964.926,-21357.178
1226923.8870551814,-100995.32,-119622.12,-28635.54,-25724.488,-31857.342,-28987.266,-21976.156,-21362.143
1226923.8910551786,-101031.74,-119648.195,-28636.354,-25733.684,-31857.057,-28983.033,-21987.143,-21393.516
1226923.8950551758,-101038.49,-119647.055,-28628.053,-25735.88,-31855.795,-28977.947,-21972.332,-21397.38
1226923.899055173,-101025.31,-119632.53,-28628.785,-25733.074,-31863.16,-28984.13,-21954.916,-21356.08
1226923.9030551699,-101015.42,-119622.32,-28633.79,-25727.459,-31864.87,-28992.393,-21954.062,-21334.393
1226923.907055167,-101035.73,-119643.516,-28634.848,-25729.168,-31859.05,-28991.7,-21967.041,-21351.97
1226923.9110551642,-101070.97,-119673.586,-28634.521,-25735.271,-31855.713,-28985.963,-21973.756,-21373.496
1226923.9150551613,-101081.38,-119680.875,-28631.064,-25737.549,-31861.654,-28983.398,-21965.781,-21376.1
1226923.9190551585,-101065.76,-119671.15,-28633.545,-25734.498,-31868.775,-28990.723,-21957.072,-21355.633
1226923.9230551557,-101042.52,-119659.51,-28639.527,-25729.736,-31868.531,-28995.646,-21957.316,-21333.701
1226923.9270551528,-101060.59,-119681.44,-28643.963,-25733.115,-31869.873,-28993.816,-21971.191,-21348.145
1226923.93105515,-101095.7,-119712.24,-28639.283,-25740.928,-31870.402,-28987.266,-21981.162,-21381.227
1226923.9350551472,-101100.836,-119716.72,-28633.22,-25744.914,-31875.205,-28984.945,-21972.332,-21387.004
1226923.9390551443,-101077.64,-119699.016,-28635.54,-25740.398,-31881.959,-28989.014,-21954.834,-21347.209
1226923.9430551415,-101061.37,-119687.99,-28643.84,-25736.125,-31882.324,-28994.629,-21951.133,-21313.64
1226923.9470551386,-101075.484,-119703.125,-28649.293,-25737.713,-31879.395,-28994.06,-21966.105,-21336.549
1226923.9510551358,-101101.445,-119719.81,-28647.543,-25743.45,-31875.896,-28991.172,-21978.516,-21376.994
1226923.955055133,-101106.41,-119716.68,-28645.875,-25748.129,-31878.256,-28988.648,-21969.89,-21384.156
1226923.9590551301,-101084.64,-119699.79,-28647.299,-25742.473,-31885.54,-28991.455,-21952.963,-21348.268
1226923.9630551273,-101075.65,-119695.48,-28652.832,-25735.516,-31884.277,-28998.21,-21952.475,-21313.436
1226923.9670551245,-101090.414,-119710.414,-28655.152,-25737.957,-31875.652,-28998.861,-21968.914,-21331.34
1226923.9710551216,-101114.99,-119729.45,-28650.596,-25743.572,-31875.205,-28993.164,-21980.674,-21376.465
1226923.9750551188,-101123.78,-119732.95,-28644.084,-25748.373,-31881.715,-28989.828,-21970.297,-21374.146
1226923.979055116,-101113.04,-119726.2,-28648.113,-25745.89,-31889.61,-28993.979,-21953.451,-21328.328
1226923.983055113,-101087.164,-119707.65,-28652.182,-25736.533,-31882.08,-29001.344,-21947.715,-21296.672
1226923.9870551103,-101095.5,-119713.71,-28650.879,-25736.736,-31873.943,-29001.953,-21961.305,-21310.303
1226923.9910551074,-101141.484,-119750.05,-28657.188,-25747.885,-31880.78,-28996.217,-21967.652,-21338.42
1226923.9950551046,-101146.94,-119750.25,-28651.896,-25751.14,-31881.877,-28990.52,-21952.963,-21332.684
1226923.9990551018,-101116.09,-119727.83,-28649.252,-25745.81,-31885.01,-28992.637,-21933.188,-21292.807
1226924.003055099,-101107.67,-119725.55,-28656.738,-25741.455,-31886.395,-28997.682,-21931.072,-21272.705
1226924.007055096,-101124.88,-119745.164,-28659.709,-25743.002,-31883.342,-28997.885,-21943.889,-21292.277
1226924.0110550933,-101145.555,-119763.06,-28655.723,-25749.064,-31882.162,-28992.88,-21953.898,-21320.232
1226924.0150550904,-101156.984,-119770.875,-28652.264,-25753.744,-31890.219,-28988.363,-21944.621,-21323.69
1226924.0190550876,-101145.555,-119760.13,-28655.559,-25750.367,-31893.066,-28992.758,-21928.996,-21286.256
1226924.0230550847,-101130.01,-119750.25,-28662.598,-25744.182,-31890.748,-28996.46,-21927.531,-21265.545
1226924.027055082,-101142.42,-119763.8,-28665.812,-25744.914,-31886.639,-28993.002,-21940.105,-21287.191
1226924.031055079,-101159.71,-119778.85,-28659.22,-25750.693,-31885.418,-28987.875,-21951.133,-21323.08
1226924.0350550762,-101154.42,-119773.6,-28654.705,-25753.744,-31888.592,-28987.102,-21944.418,-21335.734
1226924.0390550734,-101139.24,-119764.53,-28658.164,-25749.756,-31895.713,-28990.643,-21929.078,-21303.182
1226924.0430550706,-101133.305,-119765.18,-28663.818,-25743.775,-31898.357,-28993.693,-21926.514,-21272.34
1226924.0470550675,-101149.375,-119776.734,-28669.434,-25745.81,-31892.863,-28994.955,-21944.215,-21296.672
1226924.0510550647,-101173.305,-119792.484,-28665.936,-25751.791,-31893.596,-28990.113,-21960.205,-21343.75
1226924.0550550618,-101178.67,-119793.664,-28663.006,-25755.453,-31897.87,-28987.428,-21950.562,-21347.617
1226924.059055059,-101157.96,-119778.164,-28665.447,-25752.28,-31900.758,-28993.205,-21936.32,-21305.828
1226924.0630550561,-101140.51,-119768.64,-28668.986,-25746.705,-31898.682,-28998.902,-21933.27,-21277.14
1226924.0670550533,-101153.04,-119777.76,-28666.748,-25744.914,-31892.945,-28998.576,-21949.098,-21297.363
1226924.0710550505,-101177.82,-119792.08,-28662.477,-25749.064,-31888.428,-28995.729,-21960.328,-21329.713
1226924.0750550476,-101178.63,-119790.41,-28655.926,-25751.426,-31890.625,-28991.62,-21948.771,-21327.475
1226924.0790550448,-101153.77,-119772.42,-28658.652,-25747.723,-31897.543,-28996.258,-21929.688,-21288.412
1226924.083055042,-101145.67,-119767.7,-28667.48,-25744.02,-31899.293,-28999.35,-21924.072,-21266.521
1226924.0870550391,-101157.59,-119779.55,-28669.883,-25744.14,-31894.207,-28998.658,-21940.959,-21296.143
1226924.0910550363,-101177.66,-119795.984,-28667.969,-25750.123,-31890.422,-28996.338,-21951.66,-21328.248
1226924.0950550335,-101182.78,-119796.92,-28663.047,-25753.623,-31896.322,-28994.793,-21943.848,-21333.578
1226924.0990550306,-101167.89,-119784.18,-28665.812,-25750.0,-31903.973,-29001.22,-21932.781,-21303.996
1226924.1030550278,-101152.914,-119774.055,-28673.34,-25746.623,-31906.535,-29005.371,-21930.176,-21281.129
1226924.107055025,-101157.84,-119781.46,-28673.096,-25746.543,-31899.578,-29002.197,-21942.059,-21298.055
1226924.111055022,-101181.93,-119797.65,-28670.492,-25751.709,-31896.201,-28998.7,-21956.748,-21330.404
1226924.1150550193,-101192.34,-119802.49,-28666.748,-25757.53,-31902.508,-28996.99,-21947.998,-21330.242
1226924.1190550164,-101170.9,-119787.44,-28671.51,-25753.379,-31907.105,-29001.506,-21932.943,-21294.312
1226924.1230550136,-101151.45,-119776.62,-28677.043,-25747.52,-31906.088,-29007.08,-21931.805,-21266.48
1226924.1270550108,-101162.4,-119786.99,-28678.02,-25749.268,-31901.123,-29005.86,-21944.459,-21285.768
1226924.131055008,-101181.93,-119803.71,-28674.195,-25756.104,-31900.39,-29000.367,-21952.068,-21316.0
1226924.135055005,-101181.766,-119800.78,-28667.033,-25759.318,-31905.6,-28995.443,-21940.146,-21316.57
1226924.1390550022,-101164.836,-119786.87,-28668.54,-25753.174,-31912.191,-28997.682,-21924.195,-21287.191
1226924.1430549994,-101153.04,-119783.734,-28675.09,-25749.432,-31910.768,-29004.883,-21926.84,-21273.275
1226924.1470549966,-101166.34,-119793.586,-28679.404,-25751.75,-31903.932,-29005.088,-21941.0,-21295.41
1226924.1510549937,-101189.25,-119808.72,-28676.678,-25757.854,-31905.355,-28999.229,-21949.668,-21327.352
1226924.155054991,-101194.055,-119808.72,-28672.607,-25761.354,-31911.256,-28996.055,-21941.244,-21328.898
1226924.159054988,-101175.87,-119793.625,-28675.213,-25756.715,-31912.762,-29000.977,-21925.986,-21291.463
1226924.1630549852,-101161.87,-119786.95,-28679.24,-25751.914,-31911.621,-29007.53,-21926.23,-21272.096
1226924.1670549824,-101173.055,-119802.945,-28683.188,-25754.314,-31909.668,-29007.732,-21941.977,-21291.383
1226924.1710549796,-101192.34,-119818.69,-28680.176,-25760.662,-31909.059,-29003.379,-21950.318,-21316.326
1226924.1750549767,-101196.17,-119815.96,-28673.38,-25763.51,-31911.5,-29000.53,-21940.512,-21313.518
1226924.1790549739,-101177.45,-119797.0,-28676.475,-25757.732,-31911.988,-29007.121,-21929.404,-21279.297
1226924.183054971,-101166.266,-119788.945,-28686.158,-25752.564,-31909.547,-29012.045,-21926.514,-21256.836
1226924.1870549682,-101174.08,-119801.03,-28685.873,-25753.623,-31905.07,-29010.133,-21945.191,-21289.754
1226924.1910549651,-101192.18,-119820.64,-28681.479,-25758.506,-31906.291,-29007.08,-21961.102,-21331.828
1226924.1950549623,-101200.89,-119825.69,-28677.857,-25762.533,-31912.395,-29007.447,-21953.654,-21331.137
1226924.1990549595,-101186.57,-119812.71,-28682.74,-25758.057,-31915.812,-29013.428,-21938.803,-21295.33
1226924.2030549566,-101173.586,-119804.484,-28688.518,-25752.93,-31916.057,-29019.043,-21939.576,-21273.152
1226924.2070549538,-101186.445,-119815.02,-28691.244,-25755.78,-31916.545,-29019.043,-21958.375,-21298.34
1226924.211054951,-101209.39,-119830.33,-28688.355,-25763.592,-31914.877,-29012.736,-21966.309,-21326.54
1226924.215054948,-101211.02,-119823.2,-28683.27,-25766.602,-31916.79,-29009.766,-21955.283,-21335.572
1226924.2190549453,-101191.29,-119802.29,-28686.076,-25762.492,-31921.104,-29015.219,-21939.129,-21300.781
1226924.2230549424,-101178.02,-119794.36,-28692.383,-25756.227,-31920.574,-29019.531,-21939.861,-21277.426
1226924.2270549396,-101191.695,-119806.89,-28695.273,-25757.406,-31918.092,-29018.434,-21958.496,-21302.898
1226924.2310549368,-101212.85,-119818.41,-28689.941,-25764.61,-31914.348,-29015.586,-21971.518,-21338.176
1226924.235054934,-101216.07,-119817.59,-28685.223,-25768.271,-31920.533,-29015.625,-21960.693,-21333.334
1226924.239054931,-101195.11,-119805.22,-28689.658,-25763.916,-31928.834,-29020.264,-21943.97,-21295.33
1226924.2430549283,-101179.65,-119801.48,-28696.045,-25759.562,-31927.572,-29024.375,-21944.012,-21282.797
1226924.2470549254,-101189.62,-119812.14,-28695.436,-25758.994,-31918.092,-29020.672,-21959.88,-21310.1
1226924.2510549226,-101209.19,-119823.81,-28686.809,-25764.16,-31914.186,-29016.154,-21971.924,-21340.17
1226924.2550549197,-101215.05,-119820.88,-28676.555,-25767.295,-31918.701,-29015.38,-21962.24,-21337.77
1226924.259054917,-101191.2,-119801.44,-28685.264,-25761.354,-31920.127,-29021.24,-21939.209,-21286.662
1226924.263054914,-101172.53,-119790.81,-28698.242,-25757.203,-31918.092,-29024.822,-21933.35,-21250.041
1226924.2670549112,-101183.84,-119799.65,-28699.627,-25758.18,-31914.877,-29021.69,-21945.03,-21274.902
1226924.2710549084,-101202.555,-119814.74,-28695.232,-25765.87,-31916.668,-29016.887,-21956.26,-21310.506
1226924.2750549056,-101207.08,-119816.734,-28688.72,-25771.363,-31923.016,-29014.934,-21942.912,-21299.275
1226924.2790549027,-101191.98,-119802.78,-28689.861,-25766.807,-31929.24,-29020.346,-21926.596,-21260.54
1226924.2830549,-101191.37,-119803.76,-28695.395,-25764.242,-31931.113,-29024.74,-21928.346,-21253.947
1226924.287054897,-101216.27,-119832.65,-28698.04,-25767.783,-31930.217,-29024.21,-21948.61,-21288.168
1226924.2910548942,-101223.76,-119835.984,-28689.941,-25770.346,-31923.625,-29022.299,-21965.781,-21331.34
1226924.2950548914,-101225.06,-119824.71,-28683.35,-25773.072,-31926.963,-29021.281,-21959.27,-21334.19
1226924.2990548885,-101220.26,-119822.63,-28686.402,-25772.178,-31937.217,-29025.146,-21940.39,-21298.543
1226924.3030548857,-101211.19,-119822.19,-28696.006,-25767.213,-31932.984,-29028.281,-21938.07,-21268.148
1226924.3070548829,-101222.58,-119830.9,-28698.895,-25766.602,-31925.049,-29027.385,-21955.486,-21283.123
1226924.31105488,-101241.91,-119844.0,-28692.383,-25772.746,-31928.305,-29019.775,-21964.764,-21314.861
1226924.3150548772,-101252.32,-119847.375,-28687.256,-25776.123,-31935.467,-29017.498,-21952.393,-21314.982
1226924.3190548744,-101233.766,-119831.75,-28691.57,-25770.875,-31937.908,-29026.816,-21940.47,-21276.002
1226924.3230548715,-101222.58,-119824.1,-28693.28,-25763.184,-31937.217,-29032.35,-21939.738,-21250.773
1226924.3270548687,-101238.28,-119842.9,-28694.053,-25766.766,-31937.053,-29031.982,-21959.555,-21278.32
1226924.3310548658,-101263.266,-119859.09,-28692.1,-25774.984,-31936.605,-29027.508,-21972.9,-21317.627
1226924.3350548628,-101268.76,-119860.07,-28687.664,-25777.182,-31942.424,-29022.91,-21960.898,-21317.22
1226924.33905486,-101250.37,-119845.95,-28692.18,-25774.414,-31945.639,-29030.559,-21947.959,-21281.494
1226924.343054857,-101239.305,-119839.44,-28700.236,-25769.94,-31944.377,-29037.762,-21947.47,-21254.11
1226924.3470548543,-101254.52,-119859.3,-28701.416,-25770.59,-31942.832,-29035.076,-21960.205,-21260.662
1226924.3510548514,-101276.164,-119871.18,-28694.703,-25777.467,-31943.32,-29030.111,-21972.291,-21288.818
1226924.3550548486,-101276.05,-119861.49,-28690.105,-25779.217,-31942.18,-29029.95,-21967.693,-21318.441
1226924.3590548458,-101256.48,-119847.74,-28690.838,-25772.95,-31946.777,-29035.564,-21951.133,-21287.312
1226924.363054843,-101247.36,-119842.86,-28694.906,-25768.475,-31948.447,-29040.283,-21949.912,-21264.201
1226924.36705484,-101260.42,-119856.33,-28696.33,-25770.713,-31941.367,-29039.145,-21963.176,-21285.482
1226924.3710548372,-101281.375,-119874.555,-28689.617,-25774.496,-31938.844,-29033.203,-21969.035,-21321.9
1226924.3750548344,-101281.91,-119867.84,-28683.879,-25776.246,-31942.832,-29029.338,-21955.648,-21315.064
1226924.3790548316,-101262.695,-119851.24,-28691.244,-25773.682,-31946.045,-29034.994,-21942.22,-21279.5
1226924.3830548287,-101256.23,-119852.13,-28698.486,-25770.305,-31949.342,-29040.527,-21942.262,-21258.22
1226924.387054826,-101270.43,-119865.65,-28697.062,-25771.24,-31949.3,-29037.07,-21957.357,-21279.95
1226924.391054823,-101295.74,-119878.99,-28694.621,-25779.95,-31947.795,-29034.018,-21968.223,-21309.979
1226924.3950548202,-101297.85,-119876.55,-28691.447,-25784.018,-31950.969,-29032.676,-21954.834,-21302.857
1226924.3990548174,-101278.32,-119864.14,-28696.494,-25778.076,-31957.684,-29037.559,-21938.477,-21262.736
1226924.4030548146,-101266.56,-119858.56,-28705.934,-25773.154,-31958.375,-29040.977,-21938.965,-21246.42
1226924.4070548117,-101283.33,-119871.09,-28707.275,-25775.31,-31948.283,-29038.047,-21951.254,-21270.305
1226924.4110548089,-101304.37,-119885.79,-28702.88,-25781.17,-31944.133,-29034.629,-21962.646,-21303.752
1226924.415054806,-101297.77,-119885.3,-28694.377,-25783.57,-31944.662,-29033.652,-21949.219,-21301.066
1226924.4190548032,-101278.65,-119873.74,-28695.436,-25779.297,-31949.992,-29038.982,-21934.734,-21266.684
1226924.4230548004,-101271.41,-119859.945,-28698.975,-25775.432,-31954.754,-29042.645,-21938.232,-21243.855
1226924.4270547975,-101285.89,-119867.92,-28696.29,-25777.629,-31953.574,-29038.982,-21953.98,-21263.713
1226924.4310547947,-101302.375,-119885.625,-28699.016,-25783.082,-31954.428,-29035.28,-21963.299,-21295.94
1226924.4350547919,-101297.125,-119888.15,-28697.592,-25784.547,-31957.643,-29031.617,-21949.912,-21295.207
1226924.439054789,-101271.65,-119869.266,-28697.754,-25778.688,-31960.613,-29037.232,-21936.932,-21260.742
1226924.4430547862,-101259.65,-119860.234,-28701.295,-25774.09,-31957.805,-29042.93,-21934.855,-21238.69
1226924.4470547833,-101275.516,-119875.164,-28698.61,-25775.352,-31953.736,-29039.959,-21948.08,-21256.43
1226924.4510547805,-101297.77,-119892.016,-28690.553,-25780.396,-31953.654,-29035.117,-21957.805,-21280.111
1226924.4550547777,-101296.67,-119887.17,-28688.111,-25783.285,-31957.602,-29031.658,-21946.209,-21270.59
1226924.4590547748,-101277.51,-119869.47,-28688.152,-25779.053,-31962.646,-29034.385,-21931.152,-21236.043
1226924.463054772,-101269.82,-119868.05,-28693.28,-25774.984,-31962.363,-29037.11,-21933.473,-21219.238
1226924.4670547692,-101285.73,-119882.94,-28690.146,-25776.572,-31959.066,-29035.441,-21952.8,-21260.05
1226924.4710547663,-101308.35,-119899.414,-28682.496,-25781.82,-31958.008,-29029.785,-21964.152,-21300.904
1226924.4750547635,-101307.5,-119893.48,-28674.684,-25783.53,-31963.908,-29026.896,-21954.307,-21299.928
1226924.4790547604,-101282.96,-119873.21,-28674.48,-25778.361,-31964.316,-29031.414,-21943.035,-21285.035
1226924.4830547576,-101269.78,-119865.08,-28677.41,-25772.178,-31963.623,-29036.826,-21947.877,-21268.637
1226924.4870547547,-101291.51,-119879.44,-28670.818,-25775.188,-31962.932,-29034.1,-21961.955,-21284.059
1226924.491054752,-101313.766,-119899.58,-28663.574,-25784.18,-31959.555,-29029.705,-21968.994,-21310.832
1226924.495054749,-101302.94,-119893.84,-28662.68,-25787.518,-31966.879,-29027.264,-21955.242,-21302.775
1226924.4990547462,-101281.66,-119878.91,-28669.395,-25783.691,-31974.162,-29030.193,-21938.844,-21263.104
1226924.5030547434,-101271.0,-119869.96,-28670.492,-25778.037,-31973.47,-29032.756,-21938.232,-21242.39
1226924.5070547406,-101285.16,-119884.32,-28665.61,-25780.355,-31969.97,-29031.414,-21956.422,-21268.758
1226924.5110547377,-101311.61,-119901.984,-28658.732,-25784.873,-31970.012,-29027.549,-21970.582,-21306.111
1226924.515054735,-101311.85,-119896.445,-28659.506,-25788.453,-31975.098,-29026.043,-21957.887,-21300.457
1226924.519054732,-101286.91,-119876.95,-28664.104,-25784.18,-31979.533,-29033.53,-21943.32,-21262.371
1226924.5230547292,-101277.1,-119871.14,-28667.277,-25779.46,-31977.988,-29036.785,-21943.28,-21241.455
1226924.5270547264,-101294.07,-119885.7,-28666.22,-25780.396,-31973.43,-29034.709,-21957.969,-21265.951
1226924.5310547235,-101314.91,-119899.3,-28658.814,-25784.465,-31970.988,-29028.77,-21967.814,-21296.225
1226924.5350547207,-101312.91,-119895.23,-28653.2,-25787.354,-31975.75,-29028.809,-21958.701,-21290.691
1226924.5390547179,-101293.22,-119881.35,-28656.535,-25783.691,-31981.242,-29033.691,-21939.25,-21252.482
1226924.543054715,-101282.35,-119880.25,-28660.768,-25778.076,-31981.65,-29036.053,-21936.484,-21234.375
1226924.5470547122,-101298.55,-119895.1,-28666.912,-25780.193,-31977.092,-29035.97,-21955.201,-21259.604
1226924.5510547094,-101320.07,-119912.6,-28659.953,-25788.25,-31974.936,-29033.447,-21968.467,-21298.91
1226924.5550547065,-101317.71,-119905.73,-28654.297,-25789.145,-31980.55,-29030.926,-21957.44,-21292.848
1226924.5590547037,-101304.41,-119892.055,-28659.994,-25786.826,-31988.975,-29036.582,-21942.1,-21248.658
1226924.5630547008,-101297.08,-119887.54,-28666.627,-25782.756,-31987.469,-29038.697,-21941.895,-21230.713
1226924.567054698,-101310.23,-119900.11,-28665.04,-25783.57,-31981.568,-29035.4,-21959.922,-21265.3
1226924.5710546952,-101327.27,-119913.5,-28662.191,-25789.592,-31982.219,-29032.064,-21971.6,-21302.37
1226924.5750546923,-101327.48,-119908.98,-28663.9,-25792.766,-31991.781,-29032.879,-21963.135,-21297.648
1226924.5790546895,-101310.75,-119895.59,-28668.498,-25788.535,-31995.932,-29039.877,-21953.37,-21277.303
1226924.5830546867,-101305.83,-119893.195,-28671.55,-25784.059,-31992.676,-29044.11,-21955.73,-21276.408
1226924.5870546838,-101326.945,-119912.07,-28671.266,-25786.785,-31990.44,-29037.762,-21963.379,-21287.232
1226924.591054681,-101346.68,-119928.555,-28665.121,-25792.93,-31989.91,-29031.658,-21969.361,-21317.75
1226924.5950546782,-101326.664,-119910.65,-28653.77,-25793.213,-31991.252,-29030.926,-21956.992,-21308.96
1226924.5990546753,-101292.4,-119883.06,-28649.74,-25785.238,-31992.717,-29036.906,-21942.22,-21264.893
1226924.6030546725,-101292.85,-119886.16,-28656.943,-25782.35,-31993.979,-29042.441,-21944.824,-21245.77
1226924.6070546696,-101306.69,-119898.73,-28654.135,-25782.959,-31987.143,-29041.383,-21962.525,-21272.746
1226924.6110546668,-101328.78,-119913.984,-28648.234,-25789.592,-31986.004,-29037.191,-21970.582,-21303.182
1226924.615054664,-101327.555,-119905.97,-28640.625,-25792.115,-31990.723,-29035.727,-21956.34,-21293.133
1226924.6190546611,-101305.016,-119883.47,-28642.254,-25786.133,-31996.42,-29040.812,-21942.22,-21257.61
1226924.623054658,-101298.67,-119884.32,-28647.217,-25783.082,-31990.072,-29044.271,-21942.791,-21242.025
1226924.6270546552,-101312.42,-119897.625,-28649.252,-25786.5,-31989.91,-29042.033,-21957.684,-21266.887
1226924.6310546524,-101327.48,-119910.52,-28653.89,-25791.586,-31991.334,-29039.795,-21968.426,-21297.852
1226924.6350546496,-101324.55,-119904.09,-28655.885,-25793.701,-31995.078,-29037.762,-21956.748,-21288.941
1226924.6390546467,-101301.92,-119886.03,-28657.39,-25790.854,-31998.943,-29042.969,-21938.885,-21248.82
1226924.6430546439,-101294.6,-119883.18,-28659.018,-25785.768,-31998.861,-29043.213,-21937.338,-21230.062
1226924.647054641,-101312.75,-119902.51,-28660.441,-25787.598,-31994.102,-29042.725,-21958.904,-21256.43
1226924.6510546382,-101330.41,-119914.63,-28657.553,-25792.4,-31995.117,-29039.55,-21969.605,-21288.738
1226924.6550546354,-101325.32,-119904.99,-28653.076,-25793.05,-31998.617,-29036.703,-21957.56,-21285.441
1226924.6590546325,-101304.81,-119887.74,-28657.594,-25788.697,-32003.664,-29042.156,-21942.75,-21249.39
1226924.6630546297,-101297.9,-119883.02,-28663.9,-25785.238,-32003.947,-29046.713,-21944.012,-21229.615
1226924.6670546269,-101317.914,-119897.1,-28666.139,-25787.191,-32000.367,-29046.592,-21958.863,-21254.965
1226924.671054624,-101330.2,-119907.92,-28662.842,-25792.604,-31997.152,-29041.465,-21964.031,-21286.988
1226924.6750546212,-101321.86,-119898.36,-28656.576,-25792.604,-31999.473,-29041.016,-21951.701,-21282.838
1226924.6790546183,-101299.85,-119878.18,-28658.936,-25788.818,-32003.42,-29046.266,-21934.367,-21238.648
1226924.6830546155,-101294.03,-119877.2,-28665.04,-25785.035,-32002.28,-29049.805,-21936.32,-21216.879
1226924.6870546127,-101313.97,-119896.33,-28667.074,-25787.11,-31997.152,-29047.934,-21958.09,-21250.652
1226924.6910546098,-101330.77,-119914.23,-28661.541,-25793.742,-32002.035,-29045.045,-21974.732,-21302.166
1226924.695054607,-101328.414,-119910.52,-28656.088,-25796.795,-32009.28,-29044.557,-21960.816,-21298.584
1226924.6990546042,-101306.44,-119890.79,-28658.53,-25791.383,-32008.303,-29047.445,-21942.953,-21251.75
1226924.7030546013,-101299.484,-119886.44,-28664.959,-25784.953,-32008.342,-29052.451,-21945.68,-21229.207
1226924.7070545985,-101322.59,-119898.6,-28667.48,-25789.674,-32005.656,-29052.94,-21964.967,-21262.045
1226924.7110545957,-101342.86,-119913.3,-28662.68,-25797.486,-32002.2,-29048.707,-21978.15,-21301.555
1226924.7150545928,-101331.625,-119903.81,-28659.709,-25797.648,-32009.115,-29045.818,-21965.373,-21295.004
1226924.71905459,-101312.34,-119894.78,-28663.9,-25791.83,-32013.307,-29048.951,-21950.928,-21262.86
1226924.7230545871,-101306.12,-119891.93,-28667.156,-25787.598,-32014.242,-29052.043,-21955.201,-21248.455
1226924.7270545843,-101321.78,-119905.234,-28666.22,-25791.668,-32010.133,-29049.277,-21970.297,-21283.244
1226924.7310545815,-101339.6,-119920.54,-28660.361,-25797.648,-32010.865,-29044.395,-21977.906,-21314.291
1226924.7350545786,-101332.16,-119912.195,-28655.314,-25799.928,-32013.877,-29044.557,-21963.828,-21301.229
1226924.7390545758,-101309.05,-119892.74,-28656.902,-25793.701,-32015.871,-29048.91,-21946.777,-21265.3
1226924.743054573,-101304.98,-119892.016,-28663.209,-25789.633,-32014.65,-29051.025,-21950.156,-21247.438
1226924.7470545701,-101317.02,-119907.96,-28662.273,-25791.586,-32012.412,-29049.684,-21968.506,-21268.31
1226924.7510545673,-101331.055,-119921.836,-28657.35,-25797.607,-32010.459,-29044.557,-21972.738,-21292.36
1226924.7550545644,-101324.71,-119912.48,-28652.793,-25798.504,-32012.98,-29042.686,-21957.275,-21279.582
1226924.7590545616,-101302.94,-119891.56,-28654.338,-25792.93,-32013.104,-29047.445,-21939.129,-21239.746
1226924.7630545585,-101297.28,-119885.26,-28662.191,-25790.283,-32011.436,-29052.002,-21940.635,-21226.4
1226924.7670545557,-101312.625,-119899.336,-28666.139,-25792.033,-32004.396,-29050.172,-21956.951,-21256.877
1226924.7710545529,-101332.16,-119914.15,-28658.57,-25798.91,-32005.453,-29044.516,-21962.729,-21283.936
1226924.77505455,-101329.1,-119913.3,-28654.258,-25802.287,-32016.236,-29044.883,-21949.424,-21273.275
1226924.7790545472,-101313.68,-119898.16,-28660.441,-25796.021,-32020.59,-29049.766,-21934.408,-21230.713
1226924.7830545444,-101310.75,-119893.766,-28665.324,-25791.79,-32020.266,-29054.12,-21936.402,-21212.605
1226924.7870545415,-101321.25,-119907.39,-28665.04,-25792.645,-32019.41,-29052.775,-21955.283,-21242.146
1226924.7910545387,-101331.95,-119916.875,-28659.303,-25798.38,-32021.69,-29048.625,-21965.861,-21273.967
1226924.7950545358,-101328.21,-119905.36,-28655.03,-25800.62,-32025.676,-29046.387,-21947.836,-21262.004
1226924.799054533,-101315.19,-119888.8,-28660.482,-25796.266,-32028.158,-29050.578,-21928.346,-21219.727
1226924.8030545302,-101304.57,-119891.97,-28667.645,-25791.912,-32021.445,-29054.12,-21932.334,-21210.408
1226924.8070545273,-101318.65,-119907.59,-28668.05,-25794.8,-32021.525,-29053.06,-21956.584,-21253.5
1226924.8110545245,-101335.82,-119916.305,-28662.191,-25800.498,-32022.951,-29052.084,-21969.768,-21293.66
1226924.8150545217,-101331.67,-119906.375,-28656.25,-25802.043,-32028.24,-29052.979,-21959.229,-21281.941
1226924.8190545188,-101312.83,-119891.445,-28664.389,-25797.486,-32030.438,-29057.008,-21942.668,-21250.977
1226924.823054516,-101310.1,-119891.73,-28678.549,-25793.377,-32029.338,-29058.92,-21940.797,-21232.504
1226924.8270545132,-101320.6,-119903.53,-28677.043,-25796.104,-32026.246,-29057.902,-21960.45,-21261.23
1226924.8310545103,-101326.74,-119904.42,-28667.48,-25799.887,-32026.002,-29057.781,-21975.83,-21299.031
1226924.8350545075,-101329.39,-119906.664,-28665.61,-25802.775,-32036.5,-29057.496,-21966.514,-21289.836
1226924.8390545046,-101312.18,-119895.51,-28672.12,-25797.08,-32042.521,-29062.908,-21951.783,-21243.855
1226924.8430545018,-101301.64,-119891.08,-28674.277,-25790.65,-32034.873,-29067.424,-21954.346,-21231.73
1226924.847054499,-101317.586,-119903.81,-28672.69,-25792.725,-32026.043,-29066.326,-21976.074,-21273.723
1226924.8510544961,-101335.695,-119915.61,-28665.854,-25798.828,-32027.629,-29063.438,-21985.107,-21305.908
1226924.8550544933,-101338.18,-119914.23,-28662.842,-25801.758,-32033.693,-29062.012,-21971.355,-21294.11
1226924.8590544905,-101324.55,-119901.01,-28668.701,-25797.16,-32037.03,-29066.041,-21957.643,-21259.604
1226924.8630544876,-101307.945,-119892.336,-28679.281,-25794.354,-32038.332,-29070.354,-21961.467,-21247.314
1226924.8670544848,-101326.5,-119909.305,-28680.502,-25797.893,-32035.768,-29070.436,-21977.783,-21268.637
1226924.871054482,-101343.34,-119922.53,-28675.13,-25803.02,-32035.197,-29064.617,-21983.195,-21292.725
1226924.875054479,-101337.37,-119916.14,-28672.771,-25803.955,-32039.186,-29060.303,-21970.053,-21282.715
1226924.8790544763,-101316.086,-119899.945,-28677.695,-25799.602,-32040.773,-29066.773,-21953.492,-21245.2
1226924.8830544734,-101302.125,-119893.84,-28683.555,-25794.963,-32042.115,-29071.574,-21954.834,-21231.73
1226924.8870544706,-101314.54,-119907.516,-28684.938,-25797.771,-32035.93,-29068.4,-21972.25,-21266.316
1226924.8910544678,-101331.46,-119919.805,-28680.096,-25804.16,-32034.018,-29063.885,-21979.533,-21295.533
1226924.895054465,-101326.13,-119911.46,-28675.254,-25805.746,-32036.703,-29064.17,-21963.258,-21274.334
1226924.899054462,-101308.27,-119893.44,-28678.996,-25800.537,-32039.959,-29067.344,-21944.906,-21229.086
1226924.9030544593,-101303.59,-119890.586,-28684.164,-25795.045,-32038.209,-29068.115,-21944.947,-21218.14
1226924.9070544562,-101319.38,-119902.71,-28682.414,-25798.79,-32035.158,-29065.47,-21962.646,-21246.502
1226924.9110544533,-101336.1,-119914.63,-28677.775,-25806.275,-32037.803,-29061.24,-21973.674,-21285.889
1226924.9150544505,-101327.4,-119902.555,-28675.293,-25805.299,-32041.18,-29060.588,-21958.09,-21283.203
1226924.9190544477,-101306.32,-119884.61,-28680.746,-25800.416,-32043.58,-29065.35,-21937.785,-21234.09
1226924.9230544448,-101304.2,-119886.93,-28689.088,-25797.852,-32042.521,-29070.312,-21939.25,-21211.996
1226924.927054442,-101322.11,-119907.48,-28689.25,-25800.01,-32041.057,-29068.32,-21959.514,-21246.258
1226924.9310544392,-101338.26,-119921.836,-28682.781,-25806.234,-32038.291,-29064.17,-21967.205,-21279.744
1226924.9350544363,-101330.57,-119910.98,-28677.41,-25806.396,-32044.639,-29063.273,-21951.742,-21267.537
1226924.9390544335,-101307.87,-119891.24,-28680.705,-25800.62,-32050.172,-29067.22,-21937.623,-21228.516
1226924.9430544307,-101297.98,-119883.38,-28687.176,-25795.371,-32044.924,-29069.988,-21942.791,-21221.273
1226924.9470544278,-101312.95,-119896.65,-28687.785,-25799.316,-32041.057,-29067.627,-21963.014,-21256.348
1226924.951054425,-101328.086,-119906.58,-28681.234,-25803.508,-32040.365,-29062.379,-21968.75,-21280.438
1226924.9550544221,-101322.35,-119897.14,-28678.672,-25805.096,-32048.625,-29061.85,-21951.783,-21262.127
1226924.9590544193,-101300.945,-119876.14,-28682.984,-25799.277,-32051.555,-29067.139,-21937.705,-21229.615
1226924.9630544165,-101296.72,-119875.125,-28689.129,-25795.654,-32050.334,-29071.086,-21940.959,-21219.89
1226924.9670544136,-101310.47,-119891.69,-28686.89,-25796.672,-32047.08,-29067.22,-21952.475,-21239.625
1226924.9710544108,-101325.93,-119904.22,-28680.543,-25801.23,-32040.854,-29062.42,-21958.74,-21264.527
1226924.975054408,-101322.35,-119900.68,-28677.94,-25804.078,-32046.877,-29064.78,-21948.73,-21261.922
1226924.9790544051,-101305.87,-119882.98,-28685.059,-25799.113,-32048.38,-29069.865,-21936.076,-21227.254
1226924.9830544023,-101299.52,-119881.02,-28693.035,-25795.29,-32046.877,-29072.307,-21937.012,-21206.787
1226924.9870543994,-101312.016,-119899.21,-28694.744,-25797.363,-32042.889,-29068.035,-21952.068,-21229.371
1226924.9910543966,-101327.44,-119911.46,-28692.1,-25804.16,-32042.604,-29063.6,-21961.02,-21260.498
1226924.9950543938,-101324.875,-119903.04,-28687.826,-25805.502,-32048.38,-29064.291,-21951.254,-21260.945
1226924.999054391,-101301.64,-119889.49,-28688.965,-25799.846,-32045.736,-29068.93,-21933.758,-21222.494
1226925.003054388,-101295.78,-119889.29,-28695.15,-25796.592,-32049.277,-29072.43,-21936.89,-21212.322
1226925.0070543853,-101311.93,-119893.555,-28699.383,-25798.91,-32047.404,-29069.785,-21952.19,-21237.957
1226925.0110543824,-101327.07,-119901.49,-28693.768,-25804.648,-32043.05,-29066.732,-21957.48,-21258.709
1226925.0150543796,-101322.836,-119893.88,-28691.447,-25806.64,-32048.79,-29068.076,-21942.547,-21234.375
1226925.0190543768,-101302.62,-119878.91,-28697.998,-25802.246,-32056.967,-29072.998,-21926.434,-21194.295
1226925.023054374,-101296.266,-119879.32,-28704.184,-25798.992,-32054.934,-29074.424,-21930.137,-21204.102
1226925.027054371,-101313.234,-119895.59,-28704.469,-25801.27,-32045.86,-29072.55,-21949.545,-21247.6
1226925.0310543682,-101329.67,-119913.17,-28700.684,-25806.846,-32049.033,-29068.238,-21956.828,-21272.258
1226925.0350543654,-101324.22,-119907.96,-28696.33,-25809.979,-32053.875,-29069.785,-21944.5,-21262.045
1226925.0390543626,-101309.05,-119889.53,-28698.691,-25805.828,-32056.846,-29075.604,-21933.27,-21231.854
1226925.0430543597,-101306.766,-119888.88,-28705.242,-25801.23,-32055.543,-29079.428,-21939.373,-21216.717
1226925.047054357,-101327.766,-119909.55,-28711.508,-25804.81,-32049.236,-29076.254,-21953.492,-21236.248
1226925.0510543538,-101341.23,-119918.3,-28702.88,-25810.223,-32054.525,-29069.174,-21957.113,-21259.93
1226925.055054351,-101330.125,-119905.36,-28696.574,-25808.758,-32058.799,-29066.447,-21941.895,-21248.088
1226925.0590543482,-101309.37,-119890.42,-28701.457,-25805.217,-32061.32,-29070.312,-21925.904,-21214.152
1226925.0630543453,-101305.14,-119892.54,-28703.736,-25803.387,-32056.764,-29073.162,-21931.64,-21206.543
1226925.0670543425,-101318.65,-119906.91,-28702.148,-25805.705,-32054.078,-29068.564,-21951.986,-21233.154
1226925.0710543396,-101334.27,-119916.38,-28693.727,-25810.508,-32054.078,-29064.17,-21960.45,-21268.107
1226925.0750543368,-101329.67,-119909.18,-28686.484,-25811.32,-32058.717,-29062.664,-21946.941,-21256.348
1226925.079054334,-101310.875,-119892.5,-28686.932,-25806.316,-32062.217,-29066.732,-21934.002,-21216.797
1226925.0830543311,-101305.99,-119892.22,-28687.541,-25801.27,-32060.71,-29070.15,-21936.932,-21205.69
1226925.0870543283,-101323.125,-119910.28,-28683.676,-25802.287,-32059.002,-29066.895,-21954.062,-21239.95
1226925.0910543255,-101335.9,-119915.33,-28675.945,-25807.129,-32057.943,-29061.605,-21961.06,-21271.484
1226925.0950543226,-101322.516,-119901.29,-28668.457,-25808.717,-32059.734,-29057.781,-21944.215,-21255.453
1226925.0990543198,-101295.17,-119871.99,-28672.08,-25801.066,-32057.863,-29059.043,-21920.654,-21202.19
1226925.103054317,-101279.586,-119859.26,-28673.79,-25794.11,-32050.416,-29061.646,-21923.178,-21191.732
1226925.107054314,-101287.11,-119863.85,-28670.898,-25795.207,-32043.621,-29059.652,-21946.982,-21236.248
1226925.1110543113,-101291.305,-119855.836,-28660.809,-25798.828,-32042.686,-29058.799,-21961.426,-21274.617
1226925.1150543084,-101262.17,-119821.336,-28651.734,-25796.592,-32044.475,-29058.025,-21948.527,-21257.691
1226925.1190543056,-101220.18,-119781.3,-28649.578,-25788.656,-32044.23,-29061.973,-21931.805,-21210.896
1226925.1230543028,-101192.71,-119760.99,-28648.031,-25781.738,-32039.227,-29066.447,-21938.111,-21198.406
1226925.1270543,-101187.09,-119751.75,-28640.016,-25780.518,-32033.205,-29065.105,-21959.31,-21237.549
1226925.131054297,-101184.37,-119741.42,-28629.232,-25782.594,-32030.559,-29061.85,-21972.861,-21291.79
1226925.1350542943,-101165.77,-119720.625,-28623.17,-25783.041,-32037.6,-29061.24,-21963.055,-21288.006
1226925.1390542914,-101140.79,-119695.4,-28625.693,-25777.344,-32040.041,-29066.814,-21947.062,-21252.441
1226925.1430542886,-101121.625,-119684.21,-28627.158,-25773.193,-32036.623,-29069.785,-21950.195,-21241.455
1226925.1470542857,-101130.7,-119696.336,-28623.74,-25774.902,-32031.291,-29069.174,-21968.14,-21271.078
1226925.151054283,-101144.984,-119708.664,-28614.584,-25777.955,-32029.664,-29066.162,-21974.326,-21295.045
1226925.15505428,-101143.72,-119699.06,-28611.248,-25778.973,-32039.227,-29066.57,-21961.955,-21281.941
1226925.1590542772,-101133.79,-119683.96,-28616.822,-25775.635,-32043.986,-29071.941,-21949.912,-21249.635
1226925.1630542744,-101128.91,-119690.35,-28623.78,-25771.566,-32039.756,-29074.016,-21953.695,-21239.99
1226925.1670542716,-101147.22,-119710.49,-28623.291,-25773.764,-32033.938,-29073.324,-21972.088,-21271.281
1226925.1710542687,-101168.055,-119725.23,-28617.393,-25778.729,-32036.703,-29069.133,-21979.004,-21301.434
1226925.175054266,-101161.99,-119721.4,-28612.713,-25780.111,-32049.195,-29068.156,-21960.49,-21283.732
1226925.179054263,-101146.89,-119708.3,-28616.008,-25776.896,-32052.043,-29071.209,-21942.1,-21238.037
1226925.1830542602,-101150.27,-119710.82,-28620.85,-25774.74,-32048.219,-29072.062,-21941.732,-21218.22
1226925.1870542574,-101175.21,-119729.21,-28618.613,-25778.688,-32044.23,-29068.36,-21955.69,-21246.785
1226925.1910542545,-101195.97,-119743.62,-28613.648,-25784.629,-32046.998,-29063.396,-21962.12,-21279.012
1226925.1950542515,-101191.86,-119742.03,-28609.783,-25786.744,-32054.484,-29063.232,-21945.762,-21267.904
1226925.1990542486,-101175.336,-119731.41,-28613.16,-25779.99,-32056.846,-29066.65,-21927.451,-21228.271
1226925.2030542458,-101176.516,-119736.78,-28619.426,-25776.531,-32053.672,-29069.174,-21930.746,-21210.896
1226925.207054243,-101200.89,-119760.22,-28622.355,-25779.99,-32049.44,-29066.732,-21950.074,-21242.066
1226925.2110542401,-101222.86,-119777.67,-28618.857,-25785.889,-32046.877,-29062.379,-21956.463,-21270.305
1226925.2150542373,-101216.19,-119769.78,-28614.055,-25785.32,-32053.264,-29059.814,-21941.53,-21256.756
1226925.2190542344,-101202.27,-119757.086,-28618.652,-25782.35,-32063.03,-29061.932,-21922.08,-21218.426
1226925.2230542316,-101203.945,-119761.64,-28621.258,-25780.682,-32060.832,-29063.844,-21923.38,-21208.66
1226925.2270542288,-101225.34,-119783.94,-28622.111,-25782.715,-32056.154,-29061.443,-21938.193,-21234.01
1226925.231054226,-101242.96,-119797.445,-28616.21,-25788.127,-32057.902,-29057.129,-21942.832,-21258.79
1226925.235054223,-101235.07,-119788.66,-28610.76,-25788.697,-32058.066,-29057.455,-21927.816,-21238.566
1226925.2390542203,-101219.24,-119776.164,-28612.834,-25782.432,-32059.49,-29059.164,-21909.75,-21191.57
1226925.2430542174,-101223.23,-119778.12,-28615.602,-25778.973,-32053.713,-29059.287,-21911.826,-21182.7
1226925.2470542146,-101244.23,-119795.945,-28614.787,-25780.6,-32050.457,-29057.781,-21933.635,-21215.129
1226925.2510542118,-101263.96,-119811.445,-28609.742,-25788.453,-32053.184,-29055.787,-21942.832,-21235.31
1226925.255054209,-101259.766,-119807.375,-28609.05,-25789.756,-32065.35,-29057.334,-21930.014,-21227.54
1226925.259054206,-101243.45,-119793.055,-28616.375,-25783.773,-32068.076,-29061.646,-21915.365,-21199.707
1226925.2630542032,-101242.15,-119792.97,-28624.146,-25781.982,-32062.664,-29063.965,-21918.701,-21196.533
1226925.2670542004,-101262.21,-119812.09,-28623.496,-25786.418,-32057.13,-29061.035,-21937.908,-21228.516
1226925.2710541976,-101279.55,-119831.625,-28619.305,-25792.4,-32060.67,-29055.908,-21944.256,-21251.629
1226925.2750541947,-101273.03,-119828.58,-28618.043,-25793.133,-32069.744,-29055.42,-21925.742,-21232.545
1226925.279054192,-101258.016,-119815.96,-28621.867,-25789.145,-32070.762,-29059.043,-21907.188,-21197.592
1226925.283054189,-101264.94,-119821.86,-28627.361,-25788.006,-32064.982,-29060.1,-21912.273,-21190.268
1226925.2870541862,-101297.65,-119842.695,-28628.947,-25791.545,-32065.105,-29057.781,-21930.625,-21218.182
1226925.2910541834,-101310.19,-119855.516,-28627.809,-25796.713,-32067.303,-29052.613,-21935.182,-21241.334
1226925.2950541805,-101299.766,-119845.34,-28627.93,-25797.201,-32072.795,-29053.02,-21919.516,-21225.75
1226925.2990541777,-101283.61,-119834.88,-28634.848,-25793.621,-32076.701,-29059.45,-21906.78,-21188.314
1226925.3030541749,-101279.87,-119837.28,-28642.66,-25790.812,-32075.93,-29059.855,-21911.988,-21181.6
1226925.307054172,-101302.86,-119853.07,-28642.863,-25796.55,-32076.498,-29056.926,-21932.617,-21222.209
1226925.3110541692,-101322.516,-119867.03,-28638.633,-25800.701,-32076.58,-29055.299,-21942.18,-21253.988
1226925.3150541664,-101318.12,-119858.16,-28635.418,-25801.107,-32083.742,-29055.705,-21923.38,-21227.498
1226925.3190541635,-101296.8,-119842.734,-28636.557,-25794.557,-32083.66,-29059.693,-21905.111,-21186.28
1226925.3230541607,-101296.47,-119846.07,-28640.707,-25792.686,-32080.16,-29062.623,-21909.873,-21178.67
1226925.3270541579,-101320.68,-119869.914,-28640.707,-25797.201,-32079.754,-29062.664,-21930.502,-21212.322
1226925.331054155,-101335.49,-119881.555,-28634.521,-25801.27,-32083.09,-29062.053,-21941.244,-21238.852
1226925.3350541522,-101326.26,-119871.34,-28630.615,-25800.254,-32086.264,-29062.338,-21927.084,-21220.379
1226925.339054149,-101307.62,-119859.74,-28635.986,-25795.533,-32086.223,-29068.035,-21911.947,-21191.854
1226925.3430541463,-101308.59,-119864.79,-28640.91,-25795.451,-32087.078,-29071.086,-21917.725,-21190.959
1226925.3470541434,-101324.99,-119882.695,-28638.021,-25798.584,-32083.781,-29069.053,-21936.729,-21218.832
1226925.3510541406,-101337.37,-119892.17,-28630.535,-25801.596,-32081.137,-29064.535,-21941.936,-21240.926
1226925.3550541378,-101326.016,-119880.05,-28626.385,-25802.084,-32084.066,-29064.78,-21924.316,-21222.332
1226925.359054135,-101307.74,-119862.836,-28632.285,-25798.219,-32087.81,-29071.9,-21911.662,-21191.53
1226925.363054132,-101308.19,-119866.17,-28637.94,-25797.607,-32087.037,-29074.912,-21917.969,-21190.959
1226925.3670541293,-101330.0,-119888.555,-28639.16,-25799.602,-32082.072,-29070.72,-21933.27,-21213.908
1226925.3710541264,-101343.875,-119896.734,-28631.836,-25803.223,-32080.607,-29066.244,-21938.762,-21238.69
1226925.3750541236,-101333.87,-119883.18,-28629.232,-25805.055,-32088.787,-29067.506,-21923.91,-21228.068
1226925.3790541207,-101316.9,-119868.49,-28635.174,-25801.84,-32093.71,-29073.975,-21906.576,-21185.467
1226925.383054118,-101320.64,-119875.98,-28642.334,-25800.822,-32094.2,-29076.336,-21914.145,-21183.432
1226925.387054115,-101351.36,-119905.03,-28645.346,-25805.258,-32100.262,-29071.494,-21935.303,-21226.197
1226925.3910541122,-101364.51,-119909.23,-28642.863,-25811.24,-32095.988,-29068.441,-21943.035,-21254.924
1226925.3950541094,-101343.8,-119885.055,-28641.928,-25809.775,-32093.059,-29069.459,-21928.06,-21239.95
1226925.3990541066,-101326.26,-119871.38,-28649.334,-25805.787,-32099.57,-29075.074,-21915.65,-21202.434
1226925.4030541037,-101335.695,-119882.9,-28656.332,-25805.176,-32097.25,-29079.225,-21925.293,-21197.186
1226925.407054101,-101356.37,-119903.734,-28656.373,-25808.066,-32094.89,-29077.475,-21947.389,-21232.91
1226925.411054098,-101365.12,-119909.836,-28650.96,-25812.338,-32097.658,-29076.05,-21955.445,-21258.709
1226925.4150540952,-101350.99,-119898.56,-28648.723,-25812.908,-32101.115,-29076.133,-21940.268,-21240.072
1226925.4190540924,-101328.74,-119882.57,-28654.908,-25810.1,-32100.424,-29082.357,-21923.91,-21198.162
1226925.4230540895,-101326.375,-119883.06,-28659.424,-25807.822,-32096.803,-29084.107,-21929.078,-21184.53
1226925.4270540867,-101351.04,-119902.19,-28659.385,-25812.297,-32096.844,-29081.299,-21950.44,-21224.324
1226925.4310540839,-101369.875,-119911.87,-28654.176,-25818.035,-32101.482,-29080.363,-21957.031,-21254.232
1226925.435054081,-101358.195,-119901.49,-28650.352,-25818.645,-32108.807,-29079.021,-21934.855,-21224.488
1226925.4390540782,-101334.68,-119886.766,-28654.297,-25814.697,-32109.986,-29083.172,-21917.236,-21182.576
1226925.4430540754,-101330.53,-119887.54,-28656.861,-25810.873,-32105.51,-29085.043,-21925.498,-21182.414
1226925.4470540725,-101351.2,-119906.01,-28656.658,-25813.762,-32102.012,-29082.316,-21944.947,-21219.727
1226925.4510540697,-101365.6,-119915.25,-28650.879,-25819.377,-32104.738,-29077.922,-21949.83,-21248.617
1226925.4550540668,-101349.53,-119898.28,-28645.184,-25817.22,-32105.592,-29078.613,-21929.607,-21226.033
1226925.459054064,-101330.08,-119882.0,-28648.805,-25811.688,-32104.777,-29083.66,-21909.953,-21180.135
1226925.4630540612,-101330.2,-119885.22,-28650.473,-25808.758,-32104.371,-29083.822,-21912.477,-21167.928
1226925.4670540583,-101347.86,-119897.51,-28648.643,-25810.71,-32101.93,-29078.857,-21931.602,-21198.283
1226925.4710540555,-101354.21,-119905.36,-28645.793,-25815.35,-32101.32,-29075.889,-21938.232,-21226.074
1226925.4750540527,-101345.91,-119898.52,-28645.102,-25814.047,-32106.61,-29076.824,-21920.127,-21212.2
1226925.4790540498,-101325.52,-119885.79,-28649.334,-25807.861,-32109.945,-29081.178,-21904.705,-21183.064
1226925.4830540468,-101326.46,-119883.305,-28655.314,-25808.066,-32106.895,-29083.74,-21910.035,-21175.293
1226925.487054044,-101353.03,-119902.47,-28658.896,-25812.623,-32106.08,-29081.26,-21931.275,-21204.305
1226925.491054041,-101369.8,-119916.38,-28655.355,-25818.564,-32111.248,-29079.266,-21939.453,-21222.738
1226925.4950540382,-101360.72,-119904.664,-28656.738,-25819.053,-32116.172,-29082.072,-21927.002,-21208.13
1226925.4990540354,-101340.7,-119889.0,-28663.818,-25813.965,-32114.992,-29088.135,-21918.986,-21187.703
1226925.5030540326,-101338.99,-119888.59,-28668.092,-25812.338,-32111.533,-29089.355,-21925.213,-21190.633
1226925.5070540297,-101362.06,-119908.25,-28669.19,-25816.082,-32107.586,-29087.729,-21950.033,-21233.277
1226925.511054027,-101379.93,-119921.96,-28667.645,-25823.568,-32108.725,-29085.938,-21960.37,-21257.812
1226925.515054024,-101368.37,-119914.39,-28666.748,-25823.203,-32115.764,-29087.525,-21940.756,-21231.04
1226925.5190540212,-101347.21,-119897.34,-28670.86,-25817.424,-32118.287,-29091.025,-21921.672,-21189.129
1226925.5230540184,-101348.516,-119898.766,-28679.037,-25816.611,-32115.44,-29093.873,-21927.775,-21183.879
1226925.5270540155,-101367.64,-119918.54,-28677.94,-25819.744,-32112.266,-29092.611,-21947.021,-21214.355
1226925.5310540127,-101380.5,-119926.64,-28672.04,-25822.715,-32111.37,-29090.617,-21952.842,-21241.658
1226925.5350540099,-101374.11,-119915.81,-28671.387,-25823.568,-32116.863,-29092.164,-21936.932,-21231.121
1226925.539054007,-101362.02,-119902.71,-28678.06,-25819.336,-32120.322,-29095.867,-21920.654,-21189.291
1226925.5430540042,-101356.125,-119906.82,-28681.357,-25817.465,-32120.607,-29097.412,-21927.41,-21176.393
1226925.5470540014,-101373.45,-119922.53,-28684.002,-25820.15,-32117.596,-29096.518,-21947.877,-21211.914
1226925.5510539985,-101385.74,-119932.09,-28678.508,-25824.912,-32116.822,-29094.035,-21955.445,-21243.408
1226925.5550539957,-101376.266,-119921.43,-28676.719,-25825.074,-32121.746,-29094.809,-21938.438,-21224.854
1226925.5590539929,-101356.695,-119903.24,-28679.443,-25820.354,-32123.21,-29099.814,-21926.637,-21186.89
1226925.56305399,-101356.49,-119903.94,-28680.176,-25817.303,-32117.96,-29103.883,-21935.996,-21192.709
1226925.5670539872,-101375.49,-119922.164,-28683.27,-25819.133,-32114.178,-29100.668,-21953.777,-21227.742
1226925.5710539843,-101391.195,-119933.555,-28683.879,-25823.936,-32117.88,-29097.738,-21957.725,-21244.793
1226925.5750539815,-101385.945,-119924.73,-28681.682,-25824.098,-32124.676,-29097.129,-21941.041,-21219.605
1226925.5790539787,-101365.805,-119905.64,-28684.367,-25818.28,-32129.396,-29102.092,-21927.94,-21182.414
1226925.5830539758,-101367.805,-119910.16,-28690.594,-25817.303,-32126.873,-29104.492,-21936.85,-21188.844
1226925.587053973,-101388.555,-119929.24,-28689.047,-25820.762,-32121.502,-29102.418,-21955.648,-21223.023
1226925.5910539702,-101400.11,-119937.625,-28680.176,-25824.707,-32119.955,-29100.627,-21965.7,-21252.32
1226925.5950539673,-101385.38,-119920.945,-28676.799,-25822.633,-32124.635,-29101.645,-21948.283,-21227.459
1226925.5990539645,-101360.234,-119899.414,-28680.34,-25815.715,-32123.049,-29104.615,-21928.549,-21193.727
1226925.6030539616,-101356.77,-119906.664,-28682.658,-25813.438,-32116.578,-29105.225,-21933.39,-21192.912
1226925.6070539588,-101377.08,-119925.7,-28684.693,-25818.197,-32116.863,-29103.271,-21953.777,-21223.715
1226925.611053956,-101389.2,-119922.37,-28681.723,-25820.965,-32119.387,-29099.285,-21956.055,-21245.281
1226925.6150539531,-101375.37,-119906.375,-28682.455,-25818.97,-32121.135,-29099.53,-21934.693,-21222.656
1226925.6190539503,-101354.05,-119888.39,-28686.035,-25814.17,-32121.828,-29102.703,-21919.395,-21183.35
1226925.6230539475,-101348.836,-119889.61,-28688.885,-25813.682,-32117.799,-29105.918,-21930.42,-21181.764
1226925.6270539444,-101368.9,-119907.555,-28685.426,-25817.627,-32116.66,-29105.186,-21956.26,-21217.977
1226925.6310539416,-101384.445,-119915.57,-28679.037,-25821.738,-32123.984,-29102.377,-21967.205,-21244.344
1226925.6350539387,-101375.33,-119903.734,-28678.06,-25821.006,-32127.523,-29102.54,-21949.748,-21225.953
1226925.6390539359,-101358.32,-119889.9,-28684.775,-25815.715,-32123.902,-29105.918,-21932.252,-21183.92
1226925.643053933,-101349.94,-119893.15,-28690.43,-25812.297,-32120.12,-29105.469,-21936.28,-21173.951
1226925.6470539302,-101364.99,-119906.87,-28690.35,-25815.064,-32115.031,-29103.477,-21952.148,-21200.277
1226925.6510539274,-101375.9,-119913.086,-28685.67,-25819.297,-32115.195,-29101.238,-21954.795,-21223.227
1226925.6550539245,-101360.92,-119897.14,-28679.973,-25819.865,-32119.955,-29100.83,-21932.617,-21197.145
1226925.6590539217,-101339.4,-119880.5,-28683.514,-25814.982,-32121.299,-29101.889,-21912.883,-21158.326
1226925.6630539189,-101336.23,-119881.27,-28686.2,-25812.664,-32118.613,-29099.691,-21915.365,-21154.42
1226925.667053916,-101352.38,-119898.766,-28684.938,-25816.082,-32118.531,-29095.094,-21932.658,-21183.025
1226925.6710539132,-101368.62,-119911.7,-28680.46,-25821.738,-32120.037,-29092.367,-21939.047,-21202.963
1226925.6750539104,-101360.84,-119900.516,-28679.24,-25821.371,-32124.309,-29093.059,-21924.113,-21181.52
1226925.6790539075,-101339.27,-119881.63,-28684.57,-25815.918,-32124.92,-29098.064,-21910.076,-21147.137
1226925.6830539047,-101341.07,-119885.336,-28690.838,-25813.64,-32118.166,-29099.447,-21913.818,-21145.264
1226925.6870539018,-101360.84,-119899.984,-28690.553,-25818.523,-32116.74,-29096.6,-21936.076,-21185.303
1226925.691053899,-101374.15,-119908.33,-28683.35,-25823.73,-32122.193,-29090.049,-21938.273,-21201.457
1226925.6950538962,-101362.35,-119896.57,-28679.322,-25823.242,-32125.285,-29089.031,-21916.871,-21170.898
1226925.6990538933,-101344.77,-119881.72,-28681.967,-25819.785,-32131.309,-29092.164,-21904.014,-21146.729
1226925.7030538905,-101353.64,-119888.76,-28686.158,-25819.541,-32134.848,-29093.303,-21911.174,-21157.918
1226925.7070538877,-101378.336,-119908.164,-28682.617,-25821.453,-32133.668,-29091.594,-21932.334,-21188.6
1226925.7110538848,-101382.61,-119911.38,-28670.29,-25824.504,-32134.318,-29089.479,-21939.453,-21215.496
1226925.715053882,-101368.37,-119896.65,-28664.307,-25823.527,-32137.453,-29090.455,-21923.463,-21197.55
1226925.7190538791,-101349.45,-119883.18,-28665.162,-25815.594,-32135.58,-29092.53,-21909.018,-21158.488
1226925.7230538763,-101347.91,-119887.17,-28666.748,-25811.932,-32132.082,-29094.727,-21917.156,-21155.762
1226925.7270538735,-101370.41,-119904.95,-28663.047,-25814.902,-32128.379,-29092.367,-21939.373,-21182.82
1226925.7310538706,-101385.91,-119918.13,-28655.03,-25820.842,-32133.383,-29089.926,-21945.191,-21200.033
1226925.7350538678,-101370.28,-119904.055,-28648.316,-25818.564,-32140.178,-29090.088,-21929.852,-21189.738
1226925.739053865,-101349.53,-119888.8,-28650.555,-25812.379,-32140.463,-29092.814,-21913.818,-21163.982
1226925.7430538621,-101354.13,-119893.4,-28650.107,-25808.758,-32140.871,-29092.938,-21918.01,-21168.742
1226925.7470538593,-101378.664,-119914.836,-28645.184,-25810.426,-32137.492,-29090.332,-21936.89,-21199.26
1226925.7510538565,-101394.62,-119931.69,-28639.771,-25814.78,-32140.26,-29086.955,-21940.35,-21210.002
1226925.7550538536,-101381.836,-119916.586,-28632.244,-25813.232,-32142.092,-29085.693,-21921.836,-21185.914
1226925.7590538508,-101360.234,-119899.58,-28631.268,-25807.617,-32143.719,-29089.438,-21907.838,-21159.953
1226925.763053848,-101359.42,-119902.19,-28634.074,-25804.12,-32139.934,-29089.926,-21915.121,-21159.912
1226925.767053845,-101384.36,-119921.47,-28633.3,-25807.252,-32137.33,-29087.729,-21935.264,-21185.344
1226925.771053842,-101400.31,-119931.195,-28625.814,-25810.467,-32134.727,-29083.781,-21937.012,-21198.201
1226925.7750538392,-101380.5,-119918.38,-28620.89,-25809.205,-32136.883,-29081.463,-21919.15,-21182.861
1226925.7790538364,-101355.15,-119897.46,-28623.617,-25803.549,-32138.307,-29084.31,-21903.932,-21153.85
1226925.7830538335,-101356.77,-119897.55,-28627.605,-25801.352,-32135.5,-29085.734,-21911.988,-21156.088
1226925.7870538307,-101380.82,-119918.336,-28628.012,-25806.764,-32132.53,-29082.602,-21933.025,-21183.797
1226925.7910538279,-101391.12,-119922.29,-28622.275,-25812.46,-32134.645,-29076.701,-21934.043,-21194.662
1226925.795053825,-101372.97,-119902.06,-28616.334,-25812.053,-32136.639,-29076.865,-21915.162,-21174.684
1226925.7990538222,-101354.336,-119882.86,-28620.77,-25807.414,-32138.713,-29082.113,-21897.46,-21142.254
1226925.8030538193,-101355.96,-119881.63,-28623.535,-25805.502,-32139.08,-29083.13,-21903.443,-21146.607
1226925.8070538165,-101376.02,-119898.766,-28623.74,-25809.734,-32137.86,-29082.56,-21927.979,-21180.664
1226925.8110538137,-101389.33,-119907.11,-28618.45,-25814.25,-32137.412,-29079.225,-21934.287,-21194.744
1226925.8150538108,-101376.1,-119897.46,-28615.44,-25813.965,-32139.934,-29076.783,-21912.965,-21169.354
1226925.819053808,-101356.164,-119885.83,-28619.02,-25809.408,-32141.562,-29078.777,-21897.258,-21137.736
1226925.8230538052,-101359.87,-119890.305,-28625.082,-25807.658,-32138.674,-29078.492,-21903.973,-21139.812
1226925.8270538023,-101380.7,-119907.19,-28621.42,-25811.28,-32135.377,-29076.621,-21925.62,-21175.172
1226925.8310537995,-101390.67,-119910.69,-28613.852,-25815.594,-32136.027,-29074.26,-21931.846,-21200.807
1226925.8350537966,-101378.016,-119895.875,-28610.271,-25814.658,-32143.312,-29074.463,-21915.0,-21180.623
1226925.8390537938,-101356.695,-119880.62,-28614.87,-25809.408,-32147.258,-29079.672,-21902.426,-21140.91
1226925.843053791,-101360.03,-119886.44,-28619.549,-25808.799,-32144.125,-29081.463,-21907.146,-21141.033
1226925.8470537881,-101383.67,-119908.695,-28620.443,-25813.111,-32144.816,-29079.143,-21928.752,-21179.158
1226925.8510537853,-101397.79,-119916.75,-28614.584,-25816.814,-32148.723,-29078.695,-21937.338,-21208.252
1226925.8550537825,-101384.93,-119901.125,-28609.742,-25815.268,-32151.043,-29080.69,-21919.719,-21182.293
1226925.8590537796,-101365.64,-119882.45,-28611.492,-25807.658,-32149.943,-29085.572,-21905.03,-21143.31
1226925.8630537768,-101363.77,-119883.06,-28614.91,-25805.828,-32147.258,-29088.705,-21910.361,-21141.316
1226925.867053774,-101385.5,-119900.48,-28614.34,-25810.264,-32145.06,-29086.955,-21928.875,-21172.363
1226925.871053771,-101400.44,-119911.664,-28611.94,-25816.406,-32146.648,-29084.637,-21934.123,-21195.15
1226925.8750537683,-101384.89,-119898.69,-28610.596,-25815.918,-32154.664,-29084.758,-21916.424,-21169.11
1226925.8790537654,-101364.83,-119882.125,-28614.34,-25811.768,-32152.752,-29090.332,-21903.24,-21139.812
1226925.8830537626,-101372.89,-119892.625,-28619.06,-25810.264,-32147.422,-29092.734,-21913.494,-21151.814
1226925.8870537598,-101397.55,-119914.96,-28619.793,-25814.576,-32148.113,-29092.693,-21937.908,-21200.033
1226925.891053757,-101408.86,-119920.9,-28617.148,-25818.809,-32152.14,-29089.885,-21943.4,-21217.123
1226925.895053754,-101393.6,-119902.02,-28612.346,-25816.123,-32154.502,-29088.787,-21920.33,-21177.857
1226925.8990537513,-101371.016,-119882.66,-28612.916,-25809.979,-32152.834,-29092.979,-21899.09,-21132.568
1226925.9030537484,-101368.57,-119886.11,-28614.828,-25808.514,-32149.904,-29094.605,-21904.135,-21135.54
1226925.9070537456,-101386.195,-119902.914,-28612.916,-25811.85,-32146.078,-29092.53,-21924.357,-21171.713
1226925.9110537427,-101398.52,-119912.27,-28607.342,-25814.78,-32146.525,-29090.7,-21929.16,-21189.738
1226925.9150537397,-101388.06,-119901.086,-28607.666,-25815.715,-32152.873,-29093.182,-21913.535,-21170.736
1226925.9190537368,-101371.75,-119885.54,-28612.957,-25811.2,-32151.938,-29095.297,-21899.578,-21135.213
1226925.923053734,-101376.305,-119888.96,-28615.44,-25810.059,-32147.625,-29095.785,-21906.21,-21136.557
1226925.9270537312,-101398.484,-119904.26,-28616.21,-25815.918,-32147.258,-29089.6,-21921.957,-21163.533
1226925.9310537283,-101408.734,-119909.55,-28611.857,-25820.477,-32149.293,-29085.857,-21923.91,-21183.838
1226925.9350537255,-101393.96,-119894.17,-28611.004,-25817.832,-32153.402,-29086.63,-21903.932,-21160.4
1226925.9390537227,-101369.67,-119879.6,-28614.828,-25812.012,-32153.77,-29092.164,-21890.342,-21125.164
1226925.9430537198,-101371.14,-119886.97,-28617.596,-25810.344,-32151.328,-29093.914,-21899.414,-21127.035
1226925.947053717,-101394.125,-119907.96,-28616.863,-25814.902,-32147.137,-29092.57,-21921.998,-21156.209
1226925.9510537141,-101403.37,-119911.91,-28611.125,-25820.232,-32151.164,-29090.293,-21924.236,-21174.195
1226925.9550537113,-101390.18,-119894.9,-28607.79,-25818.97,-32158.773,-29089.193,-21904.379,-21147.625
1226925.9590537085,-101373.21,-119882.9,-28611.451,-25815.635,-32161.703,-29091.105,-21889.568,-21108.48
1226925.9630537056,-101379.44,-119890.18,-28614.625,-25815.064,-32162.965,-29092.123,-21901.49,-21131.959
1226925.9670537028,-101401.21,-119909.875,-28613.73,-25820.273,-32161.785,-29091.879,-21924.969,-21173.463
1226925.9710537,-101413.21,-119920.414,-28610.84,-25826.254,-32160.809,-29091.635,-21934.652,-21196.168
1226925.9750536971,-101401.984,-119909.43,-28614.38,-25826.66,-32164.47,-29094.076,-21919.434,-21175.701
1226925.9790536943,-101384.24,-119895.92,-28619.873,-25821.006,-32165.61,-29095.256,-21900.84,-21130.574
1226925.9830536915,-101392.78,-119903.69,-28623.291,-25819.947,-32161.174,-29095.908,-21907.105,-21134.604
1226925.9870536886,-101416.1,-119928.836,-28623.414,-25825.236,-32163.9,-29095.582,-21930.746,-21177.246
1226925.9910536858,-101432.336,-119941.695,-28620.078,-25831.707,-32168.377,-29090.617,-21934.775,-21199.463
1226925.995053683,-101407.84,-119916.016,-28616.416,-25827.516,-32165.203,-29090.455,-21918.906,-21179.89
1226925.99905368,-101379.234,-119890.586,-28617.717,-25819.906,-32164.064,-29094.117,-21905.803,-21143.066
1226926.0030536773,-101389.81,-119896.77,-28621.299,-25819.092,-32161.135,-29094.32,-21910.564,-21139.73
1226926.0070536744,-101417.484,-119918.46,-28622.967,-25826.498,-32163.25,-29093.71,-21929.77,-21173.26
1226926.0110536716,-101430.26,-119925.22,-28617.596,-25833.252,-32166.545,-29090.455,-21932.861,-21192.098
1226926.0150536688,-101411.91,-119905.484,-28612.793,-25829.225,-32170.33,-29090.7,-21914.715,-21166.219
1226926.019053666,-101394.125,-119890.586,-28615.764,-25822.836,-32167.482,-29095.623,-21900.473,-21128.174
1226926.023053663,-101397.75,-119897.34,-28618.775,-25822.836,-32164.553,-29096.314,-21911.174,-21135.418
1226926.0270536602,-101416.875,-119915.734,-28615.479,-25826.092,-32163.82,-29094.28,-21936.809,-21177.613
1226926.0310536574,-101426.35,-119921.516,-28611.125,-25831.26,-32168.418,-29091.879,-21941.977,-21193.645
1226926.0350536546,-101409.875,-119902.14,-28611.492,-25830.283,-32171.51,-29091.594,-21916.342,-21156.088
1226926.0390536517,-101391.6,-119886.195,-28614.38,-25824.79,-32172.404,-29092.855,-21894.084,-21110.799
1226926.043053649,-101394.125,-119889.9,-28617.188,-25824.26,-32167.889,-29092.57,-21901.49,-21117.96
1226926.047053646,-101418.5,-119910.37,-28616.66,-25829.102,-32165.568,-29092.814,-21924.643,-21156.982
1226926.0510536432,-101434.29,-119919.72,-28613.037,-25833.09,-32165.691,-29091.514,-21931.52,-21178.549
1226926.0550536404,-101421.19,-119907.35,-28612.346,-25830.852,-32171.836,-29095.703,-21912.03,-21160.4
1226926.0590536373,-101404.914,-119899.46,-28614.666,-25825.4,-32177.94,-29099.61,-21895.225,-21116.252
1226926.0630536345,-101407.35,-119905.766,-28615.928,-25823.406,-32172.975,-29101.523,-21903.564,-21121.217
1226926.0670536316,-101429.04,-119923.586,-28614.746,-25827.475,-32168.54,-29101.727,-21928.428,-21174.357
1226926.0710536288,-101436.32,-119930.38,-28607.139,-25830.363,-32170.574,-29100.098,-21937.012,-21200.36
1226926.075053626,-101419.07,-119912.52,-28602.988,-25827.88,-32171.998,-29099.406,-21918.54,-21166.586
1226926.0790536231,-101403.08,-119901.01,-28612.305,-25823.936,-32175.863,-29102.377,-21904.46,-21125.326
1226926.0830536203,-101406.3,-119908.82,-28619.264,-25824.26,-32175.986,-29103.883,-21915.365,-21135.945
1226926.0870536175,-101431.234,-119930.22,-28616.863,-25828.248,-32176.678,-29103.436,-21942.424,-21183.514
1226926.0910536146,-101441.81,-119939.375,-28612.06,-25833.904,-32183.717,-29102.662,-21948.121,-21197.633
1226926.0950536118,-101428.1,-119925.91,-28610.76,-25832.072,-32187.014,-29102.295,-21930.217,-21164.51
1226926.099053609,-101412.4,-119912.07,-28611.328,-25825.36,-32185.14,-29106.61,-21916.79,-21142.537
1226926.103053606,-101420.86,-119918.3,-28614.258,-25825.645,-32182.17,-29108.318,-21925.62,-21150.758
1226926.1070536033,-101434.29,-119933.19,-28610.596,-25829.875,-32179.81,-29105.469,-21945.883,-21184.041
1226926.1110536004,-101441.81,-119935.51,-28605.225,-25833.375,-32180.178,-29105.633,-21949.219,-21205.078
1226926.1150535976,-101425.055,-119916.63,-28603.027,-25830.363,-32185.14,-29106.365,-21929.078,-21172.975
1226926.1190535948,-101404.79,-119899.58,-28605.225,-25824.668,-32182.863,-29107.79,-21908.652,-21136.678
1226926.123053592,-101406.3,-119900.92,-28606.73,-25823.486,-32176.107,-29108.48,-21917.4,-21147.34
1226926.127053589,-101426.76,-119918.055,-28606.324,-25829.713,-32176.352,-29105.186,-21937.908,-21178.223
1226926.1310535863,-101436.12,-119919.92,-28599.936,-25834.19,-32176.434,-29100.098,-21939.494,-21188.396
1226926.1350535834,-101421.23,-119903.484,-28599.0,-25831.34,-32180.055,-29099.447,-21916.586,-21153.402
1226926.1390535806,-101403.57,-119891.93,-28604.818,-25827.068,-32180.584,-29103.924,-21897.014,-21112.387
1226926.1430535777,-101405.68,-119898.56,-28605.51,-25824.586,-32177.613,-29104.574,-21906.7,-21129.598
1226926.147053575,-101424.445,-119914.39,-28603.271,-25828.29,-32175.62,-29100.668,-21929.607,-21172.934
1226926.151053572,-101435.55,-119917.97,-28599.488,-25833.213,-32179.77,-29099.285,-21932.129,-21181.844
1226926.1550535692,-101415.81,-119902.14,-28598.512,-25832.072,-32183.188,-29100.83,-21911.744,-21147.258
1226926.1590535664,-101396.65,-119890.016,-28605.55,-25827.271,-32186.932,-29105.713,-21898.275,-21117.84
1226926.1630535636,-101402.59,-119896.125,-28611.084,-25826.05,-32185.223,-29104.492,-21907.227,-21125.164
1226926.1670535607,-101423.586,-119912.97,-28606.121,-25831.178,-32180.178,-29102.174,-21930.176,-21161.58
1226926.171053558,-101435.51,-119922.734,-28599.285,-25835.938,-32181.234,-29102.418,-21934.855,-21173.137
1226926.175053555,-101424.03,-119913.3,-28597.9,-25835.246,-32186.646,-29106.975,-21920.86,-21145.793
1226926.1790535522,-101409.23,-119906.09,-28601.889,-25829.957,-32187.664,-29111.37,-21910.482,-21122.479
1226926.1830535494,-101410.28,-119912.97,-28606.121,-25829.143,-32188.111,-29112.102,-21921.63,-21134.889
1226926.1870535465,-101431.52,-119928.266,-28604.777,-25834.19,-32187.867,-29111.248,-21946.371,-21181.072
1226926.1910535437,-101439.13,-119931.6,-28602.174,-25839.111,-32189.088,-29111.613,-21952.354,-21208.863
1226926.1950535409,-101422.81,-119914.72,-28599.326,-25835.693,-32191.447,-29112.713,-21932.008,-21184.611
1226926.1990535378,-101408.125,-119902.8,-28603.76,-25829.713,-32191.164,-29113.566,-21915.61,-21143.922
1226926.203053535,-101417.16,-119912.805,-28609.01,-25829.957,-32186.932,-29114.543,-21923.951,-21153.605
1226926.2070535321,-101439.7,-119935.19,-28606.61,-25833.74,-32183.146,-29112.59,-21948.73,-21192.912
1226926.2110535293,-101451.5,-119944.016,-28602.906,-25837.81,-32183.676,-29111.166,-21953.41,-21201.742
1226926.2150535265,-101439.45,-119935.47,-28602.256,-25838.502,-32190.594,-29112.305,-21932.049,-21170.533
1226926.2190535236,-101425.625,-119928.76,-28604.004,-25832.48,-32193.238,-29113.525,-21918.01,-21140.057
1226926.2230535208,-101422.81,-119915.2,-28604.412,-25829.63,-32184.531,-29115.928,-21927.695,-21149.943
1226926.227053518,-101427.984,-119915.33,-28602.215,-25834.107,-32182.455,-29115.154,-21950.236,-21181.682
1226926.231053515,-101438.48,-119920.21,-28600.098,-25837.525,-32188.967,-29111.695,-21952.354,-21194.5
1226926.2350535123,-101424.03,-119907.11,-28599.0,-25834.352,-32191.244,-29114.746,-21934.49,-21163.412
1226926.2390535094,-101406.3,-119898.44,-28600.627,-25830.648,-32191.285,-29119.549,-21920.654,-21130.291
1226926.2430535066,-101404.34,-119903.41,-28601.686,-25829.998,-32187.379,-29119.873,-21928.387,-21135.213
1226926.2470535038,-101427.86,-119922.04,-28599.57,-25835.125,-32186.037,-29118.125,-21946.86,-21163.209
1226926.251053501,-101437.664,-119928.23,-28594.523,-25839.6,-32190.594,-29115.154,-21947.918,-21179.402
1226926.255053498,-101420.125,-119909.266,-28593.914,-25836.02,-32193.035,-29115.479,-21928.346,-21153.605
1226926.2590534952,-101400.96,-119893.27,-28595.012,-25828.207,-32187.053,-29118.002,-21913.738,-21118.855
1226926.2630534924,-101411.09,-119900.6,-28596.273,-25828.125,-32186.2,-29118.49,-21925.904,-21131.023
1226926.2670534896,-101437.18,-119920.945,-28594.646,-25834.27,-32189.576,-29114.219,-21946.982,-21172.283
1226926.2710534867,-101444.42,-119929.445,-28591.96,-25837.973,-32191.326,-29112.305,-21949.586,-21184.246
1226926.275053484,-101429.04,-119913.3,-28590.984,-25836.223,-32196.941,-29114.951,-21930.787,-21144.37
1226926.279053481,-101408.25,-119897.625,-28590.984,-25829.55,-32195.232,-29120.361,-21914.756,-21100.383
1226926.2830534782,-101409.305,-119901.9,-28590.861,-25826.865,-32189.658,-29122.844,-21921.469,-21108.766
1226926.2870534754,-101425.74,-119916.266,-28586.467,-25830.242,-32186.932,-29121.543,-21943.156,-21153.523
1226926.2910534726,-101431.484,-119920.82,-28577.678,-25834.107,-32190.959,-29119.549,-21947.51,-21181.316
1226926.2950534697,-101418.5,-119904.99,-28578.574,-25833.457,-32197.512,-29121.055,-21927.328,-21146.77
1226926.2990534669,-101399.984,-119893.234,-28581.992,-25827.842,-32192.262,-29122.64,-21914.592,-21110.271
1226926.303053464,-101401.25,-119898.93,-28584.678,-25827.19,-32188.885,-29123.291,-21924.969,-21117.27
1226926.3070534612,-101424.6,-119916.836,-28584.555,-25834.025,-32189.373,-29121.582,-21945.15,-21150.188
1226926.3110534584,-101434.57,-119922.734,-28578.086,-25836.467,-32192.262,-29118.125,-21951.133,-21176.148
1226926.3150534555,-101418.74,-119907.02,-28575.807,-25836.182,-32196.982,-29119.955,-21933.799,-21152.059
1226926.3190534527,-101401.086,-119894.29,-28577.557,-25831.38,-32194.418,-29122.438,-21916.545,-21114.055
1226926.3230534499,-101407.02,-119904.75,-28574.912,-25830.12,-32190.959,-29121.826,-21924.48,-21118.734
1226926.327053447,-101430.625,-119919.516,-28566.57,-25835.166,-32188.844,-29117.92,-21941.691,-21156.658
1226926.3310534442,-101441.086,-119921.63,-28557.781,-25837.688,-32192.22,-29114.543,-21945.842,-21179.24
1226926.3350534413,-101429.734,-119910.12,-28553.264,-25835.45,-32201.01,-29113.648,-21927.043,-21149.7
1226926.3390534385,-101414.02,-119899.5,-28553.834,-25831.096,-32201.295,-29115.887,-21913.291,-21114.705
1226926.3430534354,-101420.62,-119906.21,-28556.967,-25831.137,-32196.697,-29116.455,-21924.48,-21125.977
1226926.3470534326,-101445.766,-119925.83,-28551.758,-25833.416,-32196.127,-29112.875,-21942.303,-21161.418
1226926.3510534298,-101455.9,-119930.875,-28541.504,-25835.613,-32198.488,-29108.928,-21942.424,-21175.496
1226926.355053427,-101436.484,-119908.695,-28535.117,-25830.283,-32200.156,-29107.748,-21923.219,-21143.678
1226926.359053424,-101416.34,-119889.695,-28534.22,-25822.836,-32198.244,-29107.057,-21907.756,-21109.172
1226926.3630534213,-101422.85,-119894.82,-28532.146,-25822.186,-32190.594,-29106.283,-21917.645,-21124.838
1226926.3670534184,-101441.61,-119912.36,-28525.514,-25826.05,-32191.611,-29104.574,-21939.535,-21163.777
1226926.3710534156,-101445.48,-119915.66,-28513.021,-25828.125,-32195.11,-29102.418,-21944.256,-21178.955
1226926.3750534127,-101430.71,-119901.01,-28505.006,-25826.213,-32197.348,-29103.068,-21927.37,-21146.12
1226926.37905341,-101413.54,-119887.086,-28503.662,-25821.494,-32198.527,-29103.842,-21911.947,-21110.271
1226926.383053407,-101419.84,-119894.29,-28502.482,-25821.494,-32194.5,-29104.697,-21918.457,-21111.816
1226926.3870534042,-101435.305,-119908.66,-28491.7,-25825.195,-32189.902,-29100.791,-21935.182,-21137.127
1226926.3910534014,-101433.8,-119904.26,-28479.453,-25827.312,-32190.35,-29095.012,-21932.943,-21146.281
1226926.3950533986,-101414.47,-119884.85,-28474.326,-25824.586,-32192.262,-29094.605,-21908.164,-21109.986
1226926.3990533957,-101397.586,-119872.28,-28474.57,-25818.645,-32191.285,-29095.215,-21890.586,-21071.736
1226926.403053393,-101402.836,-119878.016,-28471.72,-25816.244,-32188.355,-29092.979,-21901.693,-21093.018
1226926.40705339,-101424.766,-119896.81,-28467.652,-25818.768,-32185.832,-29090.617,-21924.398,-21132.244
1226926.4110533872,-101431.52,-119901.37,-28460.205,-25823.121,-32188.803,-29088.135,-21925.457,-21141.887
1226926.4150533844,-101415.61,-119886.805,-28457.275,-25821.086,-32194.5,-29090.252,-21902.629,-21105.51
1226926.4190533815,-101397.26,-119873.09,-28458.213,-25815.146,-32191.652,-29092.367,-21882.406,-21067.303
1226926.4230533787,-101406.78,-119886.93,-28457.236,-25815.553,-32191.244,-29089.723,-21891.318,-21079.51
1226926.4270533759,-101435.75,-119914.48,-28456.096,-25819.785,-32192.14,-29086.346,-21914.023,-21122.6
1226926.431053373,-101446.91,-119917.445,-28451.865,-25824.26,-32191.0,-29085.37,-21917.115,-21133.465
1226926.4350533702,-101422.37,-119886.64,-28446.697,-25818.645,-32191.652,-29090.332,-21901.775,-21105.307
1226926.4390533674,-101400.19,-119863.49,-28448.121,-25809.49,-32191.285,-29094.523,-21890.016,-21077.719
1226926.4430533645,-101409.34,-119872.89,-28448.65,-25809.531,-32186.973,-29093.547,-21902.426,-21092.896
1226926.4470533617,-101434.33,-119892.83,-28443.97,-25814.088,-32185.02,-29092.285,-21925.172,-21132.771
1226926.4510533588,-101443.65,-119899.58,-28441.447,-25816.0,-32192.668,-29090.74,-21925.822,-21145.346
1226926.455053356,-101425.13,-119883.1,-28438.559,-25809.775,-32196.086,-29091.473,-21908.082,-21115.438
1226926.4590533532,-101409.55,-119871.46,-28439.414,-25803.549,-32192.832,-29095.623,-21895.713,-21084.514
1226926.4630533503,-101416.1,-119877.41,-28440.553,-25801.596,-32186.117,-29096.07,-21905.844,-21090.332
1226926.4670533475,-101434.86,-119895.8,-28436.28,-25806.152,-32185.305,-29093.059,-21927.979,-21130.78
1226926.4710533447,-101440.59,-119896.695,-28430.46,-25810.223,-32187.785,-29091.309,-21929.281,-21147.258
1226926.4750533418,-101423.83,-119881.836,-28427.37,-25807.008,-32193.97,-29091.27,-21905.152,-21108.928
1226926.479053339,-101403.85,-119869.19,-28428.996,-25801.066,-32193.686,-29091.635,-21887.9,-21083.537
1226926.4830533362,-101409.38,-119876.55,-28429.525,-25799.928,-32187.867,-29090.902,-21896.852,-21098.268
1226926.487053333,-101427.66,-119893.03,-28423.34,-25801.678,-32184.896,-29086.875,-21915.568,-21129.965
1226926.4910533302,-101430.34,-119894.45,-28416.586,-25801.963,-32183.188,-29084.596,-21917.033,-21142.578
1226926.4950533274,-101409.34,-119876.55,-28414.512,-25797.486,-32186.729,-29085.246,-21894.816,-21107.26
1226926.4990533246,-101389.2,-119862.1,-28414.307,-25791.709,-32186.688,-29088.176,-21880.535,-21067.465
1226926.5030533217,-101398.805,-119869.96,-28413.494,-25791.18,-32182.09,-29089.805,-21892.904,-21078.857
1226926.507053319,-101419.97,-119890.016,-28409.873,-25795.127,-32183.31,-29087.566,-21915.04,-21116.09
1226926.511053316,-101425.46,-119893.88,-28404.541,-25798.096,-32190.797,-29086.346,-21916.83,-21127.076
1226926.5150533132,-101405.44,-119869.76,-28400.229,-25793.824,-32191.082,-29086.02,-21891.846,-21089.111
1226926.5190533104,-101382.49,-119850.75,-28397.99,-25788.656,-32186.361,-29086.264,-21869.14,-21048.543
1226926.5230533076,-101389.85,-119860.07,-28402.467,-25790.895,-32182.822,-29086.752,-21876.832,-21055.379
1226926.5270533047,-101413.945,-119880.82,-28400.635,-25798.584,-32186.158,-29086.387,-21894.654,-21082.44
1226926.5310533019,-101423.586,-119883.63,-28394.816,-25798.992,-32185.1,-29084.799,-21893.148,-21077.557
1226926.535053299,-101407.92,-119869.875,-28397.38,-25796.957,-32187.176,-29089.234,-21871.705,-21045.98
1226926.5390532962,-101390.42,-119858.65,-28402.385,-25792.725,-32186.77,-29095.42,-21861.816,-21035.604
1226926.5430532934,-101396.164,-119864.75,-28401.855,-25790.854,-32179.729,-29095.541,-21872.314,-21062.094
1226926.5470532905,-101418.3,-119880.82,-28398.193,-25794.76,-32178.875,-29099.0,-21893.393,-21102.906
1226926.5510532877,-101423.055,-119881.836,-28391.318,-25799.033,-32182.496,-29102.336,-21896.12,-21115.52
1226926.5550532849,-101402.02,-119862.72,-28389.568,-25795.654,-32183.799,-29105.469,-21874.512,-21083.74
1226926.559053282,-101387.49,-119854.01,-28394.572,-25790.447,-32182.293,-29112.021,-21862.387,-21054.484
1226926.5630532792,-101396.85,-119868.82,-28399.496,-25793.824,-32179.404,-29116.09,-21875.855,-21065.959
1226926.5670532763,-101413.01,-119883.47,-28397.299,-25795.94,-32178.184,-29115.072,-21895.06,-21100.098
1226926.5710532735,-101418.99,-119885.74,-28393.352,-25797.08,-32180.258,-29115.928,-21894.328,-21107.016
1226926.5750532707,-101402.266,-119872.6,-28393.84,-25795.777,-32185.549,-29119.223,-21874.309,-21072.021
1226926.5790532678,-101387.414,-119860.92,-28397.99,-25792.318,-32186.484,-29124.105,-21860.107,-21039.918
1226926.583053265,-101396.04,-119869.39,-28398.072,-25792.604,-32181.805,-29126.262,-21868.652,-21051.717
1226926.5870532622,-101417.12,-119885.016,-28394.857,-25796.266,-32177.287,-29127.32,-21891.766,-21088.42
1226926.5910532593,-101423.22,-119887.62,-28394.41,-25800.049,-32180.746,-29130.088,-21893.555,-21097.738
1226926.5950532565,-101402.47,-119869.1,-28395.549,-25797.12,-32184.816,-29134.686,-21874.676,-21064.373
1226926.5990532537,-101380.414,-119855.23,-28397.46,-25791.016,-32183.596,-29140.26,-21863.893,-21032.43
1226926.6030532508,-101394.9,-119868.734,-28401.734,-25792.645,-32181.887,-29141.766,-21874.96,-21026.45
1226926.607053248,-101422.9,-119894.414,-28403.973,-25799.521,-32184.693,-29140.707,-21889.61,-21020.508
1226926.6110532451,-101430.99,-119903.2,-28402.02,-25804.81,-32191.732,-29140.545,-21893.271,-21053.346
1226926.6150532423,-101408.29,-119884.28,-28399.943,-25802.857,-32192.22,-29144.572,-21884.156,-21103.15
1226926.6190532395,-101390.67,-119872.195,-28401.896,-25798.79,-32189.21,-29147.787,-21873.21,-21098.023
1226926.6230532366,-101393.84,-119878.586,-28403.24,-25798.79,-32186.77,-29144.898,-21876.385,-21087.89
1226926.6270532338,-101413.54,-119898.73,-28401.816,-25806.234,-32188.193,-29144.736,-21895.264,-21108.846
1226926.6310532307,-101418.625,-119902.555,-28395.957,-25810.791,-32194.582,-29145.387,-21897.055,-21110.555
1226926.635053228,-101404.79,-119886.93,-28396.893,-25808.514,-32201.498,-29150.025,-21879.03,-21074.91
1226926.639053225,-101397.625,-119880.25,-28404.99,-25806.072,-32207.072,-29154.297,-21872.275,-21046.957
1226926.6430532222,-101413.21,-119898.12,-28411.297,-25807.74,-32205.69,-29155.355,-21887.451,-21061.89
1226926.6470532194,-101434.125,-119917.484,-28409.588,-25813.07,-32202.719,-29157.268,-21910.564,-21097.9
1226926.6510532165,-101438.68,-119921.23,-28404.094,-25816.244,-32205.69,-29156.982,-21910.197,-21104.33
1226926.6550532137,-101423.18,-119909.875,-28406.82,-25813.926,-32210.328,-29159.18,-21889.812,-21069.865
1226926.6590532109,-101410.77,-119899.58,-28412.15,-25810.264,-32210.775,-29160.645,-21877.482,-21044.027
1226926.663053208,-101420.17,-119907.64,-28416.016,-25812.988,-32208.049,-29157.553,-21887.207,-21058.635
1226926.6670532052,-101437.83,-119921.02,-28416.18,-25817.303,-32207.398,-29155.314,-21907.959,-21092.732
1226926.6710532024,-101445.72,-119925.22,-28415.08,-25821.209,-32215.537,-29156.7,-21909.953,-21102.459
1226926.6750531995,-101428.914,-119909.34,-28413.168,-25818.564,-32219.28,-29160.32,-21890.342,-21070.598
1226926.6790531967,-101411.055,-119893.766,-28414.47,-25812.623,-32215.537,-29161.215,-21875.45,-21039.959
1226926.6830531938,-101420.45,-119901.37,-28415.977,-25813.232,-32212.078,-29161.418,-21887.818,-21057.293
1226926.687053191,-101440.35,-119918.74,-28415.203,-25817.75,-32212.852,-29160.93,-21910.238,-21094.523
1226926.6910531882,-101442.75,-119918.586,-28414.918,-25821.168,-32217.123,-29161.418,-21911.865,-21101.033
1226926.6950531853,-101427.05,-119901.78,-28419.395,-25819.256,-32216.758,-29166.871,-21894.37,-21069.54
1226926.6990531825,-101415.37,-119890.99,-28424.766,-25816.162,-32217.979,-29169.15,-21883.18,-21043.54
1226926.7030531797,-101423.18,-119902.67,-28429.648,-25817.383,-32218.467,-29167.521,-21895.996,-21059.693
1226926.7070531768,-101443.93,-119920.086,-28429.24,-25822.104,-32220.42,-29166.992,-21916.953,-21095.459
1226926.711053174,-101446.984,-119921.47,-28424.357,-25825.44,-32221.559,-29168.377,-21916.992,-21102.703
1226926.7150531712,-101427.45,-119909.63,-28422.934,-25822.674,-32224.936,-29172.69,-21895.184,-21068.482
1226926.7190531683,-101414.68,-119903.484,-28428.916,-25819.988,-32226.645,-29177.979,-21884.115,-21042.033
1226926.7230531655,-101424.766,-119913.414,-28431.764,-25821.533,-32225.344,-29177.734,-21895.387,-21059.652
1226926.7270531626,-101446.01,-119928.51,-28429.322,-25826.498,-32223.47,-29177.816,-21918.701,-21099.936
1226926.7310531598,-101454.06,-119930.46,-28429.2,-25830.852,-32231.324,-29180.38,-21921.957,-21112.184
1226926.735053157,-101439.375,-119915.98,-28430.34,-25831.016,-32241.457,-29184.57,-21902.996,-21081.502
1226926.7390531541,-101426.44,-119906.05,-28434.693,-25828.125,-32240.031,-29187.297,-21893.434,-21054.363
1226926.7430531513,-101434.9,-119915.695,-28438.03,-25828.898,-32236.98,-29187.582,-21908.203,-21070.477
1226926.7470531485,-101458.414,-119930.26,-28437.867,-25835.693,-32239.748,-29187.176,-21930.176,-21109.295
1226926.7510531456,-101465.414,-119929.77,-28434.734,-25840.129,-32245.24,-29190.105,-21930.787,-21118.246
1226926.7550531428,-101445.48,-119910.73,-28432.537,-25837.566,-32247.6,-29194.824,-21911.377,-21085.896
1226926.75905314,-101436.12,-119899.01,-28435.303,-25832.56,-32246.867,-29196.127,-21898.031,-21055.543
1226926.763053137,-101443.73,-119907.15,-28435.996,-25833.416,-32244.752,-29195.15,-21911.5,-21070.191
1226926.7670531343,-101447.516,-119910.52,-28429.648,-25837.484,-32245.24,-29195.762,-21931.723,-21103.924
1226926.7710531314,-101446.01,-119905.766,-28426.19,-25841.35,-32251.71,-29196.574,-21928.672,-21108.44
1226926.7750531284,-101432.91,-119895.96,-28428.955,-25841.473,-32260.418,-29198.447,-21902.752,-21051.799
1226926.7790531255,-101421.35,-119887.49,-28434.082,-25837.566,-32259.4,-29199.383,-21882.936,-20966.96
1226926.7830531227,-101433.8,-119899.13,-28437.135,-25840.293,-32252.85,-29201.416,-21902.955,-21012.33
1226926.7870531199,-101451.26,-119909.14,-28435.588,-25844.85,-32248.82,-29203.33,-21940.268,-21137.98
1226926.791053117,-101451.016,-119906.414,-28432.373,-25849.041,-32255.697,-29201.701,-21940.797,-21163.982
1226926.7950531142,-101432.7,-119889.98,-28433.27,-25848.756,-32261.232,-29203.125,-21916.057,-21121.908
1226926.7990531113,-101417.4,-119875.94,-28437.094,-25842.45,-32256.594,-29203.898,-21897.055,-21081.38
1226926.8030531085,-101430.38,-119883.914,-28438.682,-25844.443,-32254.477,-29200.604,-21904.867,-21083.822
1226926.8070531057,-101453.33,-119904.26,-28437.664,-25852.05,-32259.318,-29196.941,-21923.422,-21104.615
1226926.8110531028,-101458.984,-119906.09,-28437.053,-25854.533,-32260.215,-29198.65,-21925.66,-21115.682
1226926.8150531,-101442.67,-119891.73,-28436.89,-25849.691,-32265.219,-29203.125,-21906.17,-21093.303
1226926.8190530972,-101427.25,-119881.43,-28438.477,-25845.623,-32267.498,-29204.469,-21890.951,-21054.363
1226926.8230530943,-101437.79,-119893.68,-28442.059,-25847.453,-32264.895,-29203.533,-21901.408,-21062.5
1226926.8270530915,-101458.58,-119911.5,-28438.64,-25852.174,-32265.139,-29200.48,-21921.55,-21095.459
1226926.8310530887,-101464.805,-119911.99,-28435.752,-25854.941,-32270.06,-29200.521,-21922.04,-21101.441
1226926.8350530858,-101447.67,-119897.51,-28435.71,-25853.842,-32278.117,-29205.69,-21902.182,-21069.133
1226926.839053083,-101431.805,-119888.92,-28439.697,-25849.53,-32276.652,-29209.107,-21890.951,-21048.137
1226926.8430530801,-101437.87,-119896.695,-28442.871,-25850.506,-32267.62,-29206.463,-21903.973,-21069.174
1226926.8470530773,-101460.33,-119912.805,-28440.635,-25856.406,-32267.58,-29206.096,-21928.223,-21105.633
1226926.8510530745,-101463.79,-119911.38,-28434.408,-25859.498,-32271.607,-29207.072,-21931.64,-21111.613
1226926.8550530716,-101442.79,-119893.234,-28434.531,-25854.615,-32278.078,-29210.41,-21912.68,-21077.8
1226926.8590530688,-101428.39,-119885.91,-28439.006,-25850.342,-32276.693,-29213.705,-21900.31,-21050.334
1226926.863053066,-101435.63,-119899.5,-28439.414,-25850.871,-32274.049,-29212.607,-21910.93,-21066.041
1226926.8670530631,-101455.28,-119914.59,-28436.24,-25855.592,-32274.7,-29210.043,-21928.672,-21099.691
1226926.8710530603,-101458.17,-119914.11,-28433.35,-25859.05,-32279.46,-29210.898,-21927.979,-21100.465
1226926.8750530574,-101443.24,-119897.51,-28439.047,-25859.05,-32284.182,-29213.95,-21907.797,-21061.2
1226926.8790530546,-101434.9,-119891.36,-28445.72,-25855.795,-32282.146,-29215.293,-21894.898,-21026.123
1226926.8830530518,-101449.34,-119904.34,-28448.812,-25855.754,-32278.2,-29214.355,-21905.479,-21034.506
1226926.887053049,-101467.414,-119919.72,-28446.615,-25860.922,-32281.82,-29214.56,-21934.57,-21112.875
1226926.891053046,-101465.945,-119918.3,-28442.262,-25863.607,-32284.22,-29213.705,-21938.355,-21132.162
1226926.8950530433,-101445.27,-119899.664,-28444.053,-25862.51,-32287.6,-29211.67,-21913.047,-21089.234
1226926.8990530404,-101430.016,-119887.375,-28449.3,-25858.277,-32287.436,-29209.84,-21896.648,-21071.209
1226926.9030530376,-101437.625,-119895.1,-28449.342,-25859.213,-32281.943,-29209.637,-21907.35,-21082.602
1226926.9070530348,-101452.15,-119909.266,-28443.238,-25862.51,-32283.57,-29208.701,-21928.346,-21109.375
1226926.911053032,-101450.28,-119907.19,-28439.373,-25864.34,-32285.97,-29207.969,-21931.396,-21118.855
1226926.915053029,-101432.87,-119888.35,-28441.611,-25861.777,-32287.883,-29210.775,-21911.906,-21087.484
1226926.919053026,-101420.9,-119875.98,-28448.121,-25859.05,-32286.135,-29216.473,-21903.443,-21062.176
1226926.9230530232,-101430.016,-119883.875,-28450.969,-25860.434,-32283.977,-29216.594,-21918.213,-21079.346
1226926.9270530203,-101448.0,-119896.61,-28448.975,-25865.846,-32286.785,-29215.252,-21941.285,-21112.875
1226926.9310530175,-101446.17,-119891.97,-28445.436,-25869.508,-32293.01,-29213.705,-21940.105,-21116.943
1226926.9350530147,-101423.51,-119868.695,-28447.307,-25867.96,-32293.174,-29215.049,-21918.213,-21081.502
1226926.9390530118,-101399.13,-119845.26,-28449.016,-25863.607,-32290.285,-29216.594,-21901.775,-21051.88
1226926.943053009,-101401.45,-119848.19,-28448.08,-25862.713,-32286.338,-29216.188,-21913.494,-21066.285
1226926.9470530062,-101415.98,-119859.83,-28445.924,-25869.102,-32286.826,-29216.188,-21932.414,-21073.61
1226926.9510530033,-101410.81,-119843.39,-28442.871,-25872.682,-32289.023,-29215.82,-21934.367,-21077.516
1226926.9550530005,-101374.48,-119804.164,-28439.902,-25864.666,-32286.256,-29216.879,-21926.066,-21106.648
1226926.9590529976,-101340.78,-119777.914,-28440.635,-25858.195,-32282.594,-29217.49,-21916.26,-21079.549
1226926.9630529948,-101345.586,-119783.77,-28440.594,-25860.557,-32279.338,-29216.879,-21922.16,-21075.033
1226926.967052992,-101347.05,-119787.32,-28437.664,-25865.113,-32281.74,-29217.285,-21948.527,-21143.637
1226926.9710529891,-101328.29,-119768.44,-28432.822,-25865.723,-32281.455,-29220.053,-21957.56,-21179.281
1226926.9750529863,-101299.805,-119742.11,-28431.357,-25861.37,-32280.438,-29224.53,-21938.965,-21133.3
1226926.9790529835,-101270.23,-119719.28,-28430.502,-25853.312,-32272.38,-29224.61,-21925.537,-21099.936
1226926.9830529806,-101258.18,-119703.78,-28425.537,-25851.035,-32263.957,-29224.406,-21938.152,-21118.164
1226926.9870529778,-101269.86,-119710.78,-28420.045,-25854.248,-32264.65,-29223.633,-21961.02,-21150.838
1226926.991052975,-101266.12,-119710.25,-28414.756,-25856.406,-32271.16,-29223.268,-21959.352,-21152.791
1226926.995052972,-101245.04,-119689.17,-28412.72,-25851.645,-32272.707,-29224.0,-21934.693,-21115.193
1226926.9990529693,-101233.28,-119677.984,-28415.488,-25848.227,-32270.387,-29224.57,-21921.387,-21086.59
1226927.0030529664,-101245.98,-119685.63,-28417.807,-25849.447,-32268.107,-29222.047,-21934.855,-21103.68
1226927.0070529636,-101262.49,-119702.84,-28412.11,-25853.598,-32269.533,-29218.223,-21954.59,-21138.387
1226927.0110529608,-101258.586,-119695.73,-28406.332,-25855.348,-32271.566,-29216.27,-21950.562,-21139.404
1226927.015052958,-101235.92,-119676.27,-28407.064,-25851.28,-32270.346,-29216.35,-21928.916,-21104.045
1226927.019052955,-101230.11,-119671.76,-28411.133,-25847.656,-32271.893,-29217.002,-21920.207,-21085.246
1226927.0230529523,-101252.61,-119687.586,-28415.977,-25850.465,-32276.49,-29213.543,-21935.914,-21109.375
1226927.0270529494,-101274.3,-119703.375,-28411.988,-25854.86,-32277.996,-29211.752,-21956.707,-21140.219
1226927.0310529466,-101284.71,-119709.516,-28411.826,-25859.336,-32283.205,-29213.176,-21957.643,-21145.102
1226927.0350529437,-101272.016,-119701.586,-28412.15,-25856.934,-32287.68,-29212.566,-21935.752,-21107.219
1226927.039052941,-101265.75,-119699.51,-28415.0,-25853.436,-32285.441,-29211.996,-21920.127,-21062.867
1226927.043052938,-101286.016,-119717.57,-28416.709,-25855.389,-32282.635,-29207.316,-21923.178,-21039.062
1226927.0470529352,-101312.34,-119735.97,-28415.0,-25860.148,-32284.426,-29203.533,-21943.238,-21071.818
1226927.0510529324,-101324.06,-119740.65,-28413.047,-25863.078,-32289.674,-29208.09,-21959.229,-21164.43
1226927.0550529296,-101307.54,-119726.08,-28413.209,-25860.557,-32290.568,-29211.793,-21948.406,-21163.574
1226927.0590529267,-101297.08,-119718.71,-28415.895,-25857.219,-32286.947,-29211.06,-21932.334,-21113.893
1226927.0630529237,-101319.664,-119737.92,-28421.957,-25861.29,-32288.371,-29209.148,-21944.621,-21132.08
1226927.0670529208,-101348.88,-119760.83,-28422.08,-25867.025,-32291.627,-29204.184,-21963.055,-21165.324
1226927.071052918,-101354.9,-119761.44,-28417.4,-25867.84,-32296.225,-29201.742,-21959.31,-21156.453
1226927.0750529151,-101337.41,-119745.484,-28419.11,-25863.934,-32301.799,-29205.283,-21936.076,-21110.066
1226927.0790529123,-101331.95,-119745.28,-28422.934,-25859.66,-32304.037,-29206.748,-21923.504,-21081.828
1226927.0830529095,-101348.76,-119763.555,-28421.307,-25860.963,-32300.822,-29205.201,-21936.973,-21101.277
1226927.0870529066,-101376.38,-119787.97,-28420.533,-25867.066,-32302.736,-29204.672,-21959.717,-21136.963
1226927.0910529038,-101381.19,-119792.445,-28418.01,-25868.408,-32311.646,-29205.893,-21957.764,-21137.574
1226927.095052901,-101363.164,-119781.01,-28418.254,-25865.479,-32313.438,-29206.666,-21936.035,-21099.406
1226927.0990528981,-101355.43,-119778.41,-28423.057,-25862.672,-32308.555,-29205.69,-21924.398,-21074.545
1226927.1030528953,-101375.29,-119797.94,-28427.287,-25866.21,-32311.037,-29204.998,-21938.803,-21099.447
1226927.1070528924,-101402.34,-119819.87,-28426.19,-25871.46,-32314.7,-29203.33,-21959.434,-21136.19
1226927.1110528896,-101406.05,-119820.195,-28424.072,-25872.6,-32315.635,-29201.05,-21956.178,-21133.22
1226927.1150528868,-101391.08,-119805.625,-28426.84,-25869.102,-32317.953,-29201.621,-21933.27,-21094.85
1226927.119052884,-101386.516,-119801.92,-28431.357,-25865.723,-32319.5,-29202.842,-21921.63,-21072.877
1226927.123052881,-101402.39,-119815.8,-28431.316,-25867.555,-32318.035,-29198.324,-21928.793,-21088.014
1226927.1270528783,-101424.32,-119831.016,-28428.428,-25873.576,-32319.826,-29196.33,-21943.768,-21112.752
1226927.1310528754,-101425.74,-119832.445,-28429.322,-25875.611,-32322.756,-29195.639,-21941.65,-21115.967
1226927.1350528726,-101408.05,-119817.75,-28434.287,-25871.46,-32321.494,-29196.9,-21921.266,-21090.252
1226927.1390528698,-101397.586,-119811.164,-28439.414,-25866.66,-32315.553,-29197.959,-21912.273,-21063.803
1226927.143052867,-101412.88,-119827.07,-28442.547,-25868.693,-32312.176,-29195.72,-21927.043,-21070.436
1226927.147052864,-101435.71,-119844.61,-28440.635,-25874.309,-32311.77,-29193.36,-21943.36,-21091.188
1226927.1510528612,-101437.5,-119843.39,-28438.518,-25874.676,-32314.088,-29194.174,-21941.162,-21101.766
1226927.1550528584,-101419.4,-119829.63,-28436.768,-25871.176,-32318.156,-29196.25,-21925.822,-21086.426
1226927.1590528556,-101409.38,-119828.414,-28440.105,-25868.084,-32321.738,-29197.674,-21917.4,-21069.133
1226927.1630528527,-101427.414,-119844.98,-28442.547,-25869.914,-32321.412,-29197.021,-21932.74,-21097.088
1226927.16705285,-101450.89,-119863.77,-28440.797,-25875.488,-32319.215,-29196.045,-21952.963,-21132.732
1226927.171052847,-101456.055,-119863.125,-28437.42,-25878.744,-32323.895,-29195.883,-21950.033,-21128.256
1226927.1750528442,-101443.32,-119852.18,-28439.982,-25878.053,-32328.166,-29198.121,-21929.688,-21086.629
1226927.1790528414,-101431.64,-119843.75,-28442.465,-25872.885,-32326.295,-29198.283,-21918.58,-21060.547
1226927.1830528385,-101442.836,-119855.68,-28440.715,-25873.17,-32323.488,-29196.615,-21932.252,-21079.387
1226927.1870528357,-101464.234,-119874.15,-28437.95,-25877.197,-32324.465,-29193.36,-21949.098,-21102.254
1226927.1910528329,-101467.25,-119874.516,-28437.135,-25879.6,-32330.242,-29194.988,-21943.97,-21093.182
1226927.19505283,-101446.414,-119858.04,-28440.227,-25877.158,-32330.16,-29199.912,-21924.195,-21063.64
1226927.1990528272,-101436.93,-119849.25,-28443.97,-25873.7,-32328.248,-29201.783,-21916.139,-21049.236
1226927.2030528244,-101452.4,-119862.15,-28446.127,-25874.92,-32329.957,-29201.54,-21932.21,-21069.703
1226927.2070528213,-101467.734,-119876.34,-28443.28,-25879.68,-32333.213,-29199.504,-21948.975,-21100.545
1226927.2110528185,-101470.22,-119876.39,-28441.732,-25882.041,-32335.572,-29198.691,-21942.506,-21094.402
1226927.2150528156,-101454.63,-119859.625,-28446.533,-25880.615,-32341.92,-29201.621,-21921.104,-21059.205
1226927.2190528128,-101447.23,-119854.7,-28452.88,-25879.395,-32342.693,-29204.998,-21915.162,-21041.219
1226927.22305281,-101464.84,-119875.414,-28455.283,-25881.918,-32342.49,-29204.428,-21933.229,-21070.312
1226927.227052807,-101487.836,-119898.4,-28454.998,-25886.557,-32344.24,-29206.096,-21954.754,-21108.357
1226927.2310528043,-101490.97,-119898.85,-28453.492,-25890.178,-32349.123,-29205.527,-21949.912,-21104.533
1226927.2350528014,-101470.79,-119879.27,-28455.648,-25886.068,-32350.139,-29204.55,-21923.504,-21057.129
1226927.2390527986,-101459.03,-119871.22,-28462.2,-25881.959,-32343.629,-29204.469,-21907.635,-21025.555
1226927.2430527958,-101470.586,-119882.2,-28463.99,-25884.36,-32338.299,-29204.143,-21921.266,-21053.549
1226927.247052793,-101485.88,-119892.375,-28459.19,-25887.207,-32336.59,-29202.88,-21940.797,-21089.764
1226927.25105279,-101484.336,-119889.9,-28454.387,-25887.98,-32336.346,-29204.062,-21942.303,-21100.586
1226927.2550527873,-101470.5,-119879.68,-28459.758,-25886.11,-32341.473,-29208.822,-21922.812,-21069.988
1226927.2590527844,-101463.79,-119876.67,-28467.002,-25885.092,-32345.908,-29209.717,-21914.43,-21047.201
1226927.2630527816,-101490.36,-119896.61,-28473.756,-25889.73,-32348.186,-29204.957,-21922.852,-21064.576
1226927.2670527787,-101510.22,-119917.766,-28472.617,-25894.94,-32350.139,-29200.195,-21937.908,-21096.273
1226927.271052776,-101488.98,-119903.04,-28463.584,-25893.148,-32352.459,-29200.36,-21939.25,-21097.86
1226927.275052773,-101460.05,-119877.89,-28463.176,-25888.957,-32355.998,-29201.904,-21918.662,-21064.494
1226927.2790527702,-101448.81,-119873.3,-28463.908,-25884.93,-32354.818,-29202.312,-21904.664,-21040.975
1226927.2830527674,-101456.305,-119882.29,-28460.979,-25886.8,-32350.953,-29200.074,-21918.254,-21054.852
1226927.2870527646,-101480.8,-119904.914,-28458.008,-25894.451,-32356.04,-29198.203,-21938.111,-21077.23
1226927.2910527617,-101472.62,-119897.22,-28454.346,-25897.705,-32364.096,-29201.701,-21939.941,-21083.62
1226927.295052759,-101453.58,-119877.24,-28455.893,-25893.719,-32367.596,-29203.94,-21921.63,-21063.355
1226927.299052756,-101445.4,-119870.65,-28458.293,-25891.684,-32365.846,-29203.045,-21910.4,-21043.377
1226927.3030527532,-101459.555,-119888.39,-28458.781,-25894.328,-32365.031,-29200.889,-21927.246,-21073.324
1226927.3070527504,-101482.305,-119912.32,-28458.904,-25899.334,-32365.195,-29201.133,-21947.877,-21108.033
1226927.3110527475,-101478.16,-119904.46,-28453.533,-25899.008,-32368.857,-29202.842,-21944.662,-21100.139
1226927.3150527447,-101458.375,-119884.28,-28455.363,-25895.63,-32374.025,-29207.805,-21925.578,-21059.979
1226927.3190527419,-101449.1,-119876.55,-28458.537,-25894.328,-32372.805,-29208.213,-21914.55,-21036.418
1226927.323052739,-101462.37,-119893.555,-28460.734,-25896.852,-32369.875,-29206.219,-21926.719,-21056.316
1226927.3270527362,-101484.13,-119914.516,-28460.166,-25901.693,-32373.332,-29205.975,-21947.674,-21092.123
1226927.3310527334,-101483.24,-119914.35,-28456.951,-25903.77,-32377.89,-29209.758,-21945.924,-21090.7
1226927.3350527305,-101465.5,-119898.16,-28459.84,-25898.479,-32378.176,-29211.508,-21923.219,-21051.393
1226927.3390527277,-101459.88,-119897.34,-28466.064,-25895.752,-32377.158,-29211.305,-21911.053,-21030.844
1226927.3430527248,-101476.97,-119911.664,-28464.031,-25896.729,-32375.773,-29210.693,-21926.555,-21053.508
1226927.347052722,-101500.66,-119930.42,-28460.531,-25902.629,-32378.988,-29211.71,-21947.47,-21080.852
1226927.351052719,-101500.164,-119929.37,-28460.246,-25906.088,-32386.11,-29214.64,-21943.441,-21080.078
1226927.355052716,-101475.586,-119906.91,-28462.078,-25901.979,-32386.965,-29216.35,-21922.04,-21048.299
1226927.3590527133,-101465.13,-119899.13,-28463.34,-25897.87,-32384.074,-29214.56,-21906.902,-21019.979
1226927.3630527104,-101480.516,-119912.48,-28466.96,-25899.293,-32382.488,-29208.62,-21916.139,-21040.08
1226927.3670527076,-101498.17,-119928.67,-28463.908,-25904.99,-32382.447,-29206.707,-21934.775,-21075.115
1226927.3710527048,-101497.64,-119926.97,-28460.166,-25907.268,-32384.727,-29208.863,-21929.688,-21064.656
1226927.375052702,-101476.89,-119906.7,-28461.223,-25902.467,-32384.115,-29209.434,-21907.023,-21031.453
1226927.379052699,-101463.75,-119896.24,-28462.281,-25896.281,-32380.006,-29207.725,-21897.666,-21023.846
1226927.3830526962,-101474.086,-119908.086,-28462.646,-25897.258,-32377.97,-29204.754,-21912.477,-21043.336
1226927.3870526934,-101490.28,-119920.945,-28459.025,-25900.596,-32378.42,-29204.307,-21933.146,-21075.36
1226927.3910526906,-101488.125,-119916.75,-28456.178,-25902.752,-32381.064,-29207.52,-21931.275,-21078.736
1226927.3950526877,-101465.5,-119897.55,-28459.025,-25898.193,-32383.83,-29207.236,-21908.814,-21042.156
1226927.399052685,-101457.16,-119893.516,-28463.908,-25893.596,-32384.238,-29206.625,-21896.322,-21012.451
1226927.403052682,-101478.11,-119913.984,-28465.74,-25897.055,-32381.553,-29206.096,-21910.361,-21031.658
1226927.4070526792,-101495.81,-119926.15,-28461.875,-25900.555,-32377.932,-29204.875,-21935.791,-21077.637
1226927.4110526764,-101496.09,-119919.36,-28460.205,-25901.896,-32382.732,-29206.625,-21933.758,-21073.445
1226927.4150526735,-101475.18,-119904.016,-28465.129,-25897.217,-32386.965,-29209.637,-21913.006,-21030.518
1226927.4190526707,-101464.36,-119894.45,-28466.879,-25890.87,-32380.047,-29209.31,-21899.822,-21011.639
1226927.4230526679,-101478.72,-119907.64,-28464.316,-25891.766,-32375.53,-29207.195,-21912.598,-21034.588
1226927.427052665,-101499.35,-119925.74,-28458.701,-25896.973,-32380.861,-29203.98,-21932.455,-21068.889
1226927.4310526622,-101500.37,-119923.42,-28456.625,-25899.334,-32385.906,-29202.76,-21926.637,-21061.605
1226927.4350526594,-101480.19,-119904.26,-28457.725,-25896.648,-32388.389,-29202.922,-21901.896,-21021.24
1226927.4390526565,-101467.57,-119895.1,-28458.701,-25891.969,-32381.553,-29200.928,-21892.578,-21003.582
1226927.4430526537,-101482.625,-119906.13,-28459.84,-25893.148,-32377.768,-29199.098,-21910.156,-21038.982
1226927.4470526509,-101506.39,-119923.47,-28459.31,-25898.316,-32379.6,-29197.021,-21930.664,-21067.424
1226927.451052648,-101504.68,-119920.695,-28457.846,-25899.943,-32380.982,-29197.307,-21926.434,-21062.785
1226927.4550526452,-101480.59,-119898.69,-28458.701,-25894.775,-32378.988,-29198.162,-21899.455,-21023.926
1226927.4590526423,-101467.94,-119889.61,-28458.416,-25891.236,-32376.182,-29199.3,-21891.928,-21007.447
1226927.4630526395,-101480.96,-119904.055,-28458.213,-25889.934,-32371.055,-29195.68,-21907.146,-21027.303
1226927.4670526367,-101498.375,-119919.68,-28454.062,-25894.084,-32373.496,-29195.965,-21924.072,-21057.902
1226927.4710526338,-101490.97,-119912.195,-28450.033,-25894.572,-32374.473,-29196.168,-21916.992,-21046.387
1226927.475052631,-101467.53,-119888.266,-28450.4,-25890.463,-32373.984,-29197.186,-21892.701,-21004.639
1226927.4790526282,-101453.414,-119879.27,-28453.654,-25887.33,-32368.938,-29198.08,-21881.348,-20980.389
1226927.4830526253,-101467.98,-119893.03,-28456.666,-25890.219,-32366.537,-29196.33,-21898.887,-21007.447
1226927.4870526225,-101486.45,-119906.414,-28454.266,-25893.76,-32366.578,-29194.377,-21919.883,-21047.69
1226927.4910526196,-101483.08,-119897.38,-28452.8,-25893.719,-32370.281,-29193.645,-21915.691,-21040.895
1226927.4950526166,-101462.69,-119879.234,-28455.12,-25890.545,-32370.24,-29195.557,-21896.12,-21006.104
1226927.4990526137,-101459.72,-119880.01,-28460.654,-25889.08,-32366.496,-29196.656,-21888.998,-20989.584
1226927.503052611,-101479.66,-119898.73,-28461.549,-25891.48,-32361.736,-29195.395,-21902.71,-21012.004
1226927.507052608,-101495.41,-119909.55,-28459.758,-25893.719,-32360.271,-29193.93,-21919.557,-21039.959
1226927.5110526052,-101488.484,-119901.414,-28458.09,-25894.004,-32364.38,-29193.889,-21914.307,-21036.824
1226927.5150526024,-101463.79,-119881.07,-28458.416,-25891.807,-32367.434,-29196.168,-21893.555,-21005.574
1226927.5190525996,-101456.99,-119877.69,-28463.746,-25888.469,-32366.701,-29198.08,-21885.742,-20989.828
1226927.5230525967,-101475.016,-119895.1,-28467.57,-25891.725,-32364.828,-29196.615,-21904.623,-21018.148
1226927.5270525939,-101493.164,-119913.62,-28467.205,-25896.77,-32364.951,-29196.494,-21925.945,-21051.434
1226927.531052591,-101493.01,-119913.21,-28468.547,-25899.09,-32372.316,-29199.139,-21922.975,-21042.36
1226927.5350525882,-101477.3,-119895.8,-28471.232,-25894.816,-32374.473,-29200.604,-21902.426,-21007.447
1226927.5390525854,-101467.57,-119887.25,-28474.041,-25891.074,-32372.031,-29198.121,-21891.074,-20982.83
1226927.5430525825,-101483.805,-119900.805,-28476.115,-25894.736,-32369.143,-29193.604,-21903.24,-21000.773
1226927.5470525797,-101504.4,-119913.414,-28473.674,-25897.787,-32368.775,-29193.4,-21927.775,-21048.34
1226927.5510525769,-101501.18,-119908.98,-28470.012,-25897.46,-32369.834,-29195.8,-21927.166,-21048.87
1226927.555052574,-101481.24,-119892.336,-28473.35,-25894.004,-32374.146,-29199.668,-21908.0,-21020.752
1226927.5590525712,-101472.21,-119885.87,-28479.248,-25890.666,-32373.17,-29200.562,-21897.014,-20994.223
1226927.5630525684,-101482.586,-119898.08,-28477.256,-25890.504,-32365.805,-29196.045,-21907.635,-21013.998
1226927.5670525655,-101497.766,-119911.46,-28471.965,-25895.387,-32365.764,-29194.133,-21922.893,-21037.191
1226927.5710525627,-101492.96,-119904.14,-28470.459,-25898.031,-32371.867,-29195.191,-21917.969,-21023.64
1226927.5750525598,-101474.81,-119886.84,-28474.285,-25893.963,-32373.332,-29196.656,-21895.02,-20990.805
1226927.579052557,-101465.82,-119881.76,-28477.621,-25892.213,-32371.42,-29195.68,-21885.498,-20974.773
1226927.5830525542,-101479.25,-119892.016,-28476.686,-25895.102,-32369.71,-29195.639,-21904.094,-21009.725
1226927.5870525513,-101495.98,-119904.75,-28473.43,-25897.137,-32372.885,-29196.533,-21925.945,-21040.447
1226927.5910525485,-101493.53,-119900.39,-28471.72,-25898.275,-32376.223,-29197.062,-21919.11,-21027.508
1226927.5950525457,-101477.09,-119886.07,-28476.889,-25895.834,-32378.826,-29199.951,-21896.281,-20992.31
1226927.5990525428,-101470.79,-119884.36,-28482.91,-25893.19,-32376.547,-29198.61,-21886.271,-20968.994
1226927.60305254,-101485.35,-119898.69,-28483.807,-25894.492,-32371.867,-29196.656,-21901.611,-20990.764
1226927.6070525371,-101503.46,-119912.16,-28480.145,-25898.479,-32373.617,-29195.354,-21922.852,-21020.02
1226927.6110525343,-101502.73,-119906.74,-28480.43,-25900.879,-32380.088,-29199.18,-21921.469,-21016.56
1226927.6150525315,-101479.54,-119885.38,-28482.219,-25897.95,-32382.285,-29202.434,-21899.822,-20984.904
1226927.6190525286,-101468.71,-119879.93,-28483.521,-25894.125,-32374.35,-29202.148,-21890.83,-20978.395
1226927.6230525258,-101484.3,-119896.98,-28482.504,-25895.346,-32371.096,-29198.65,-21907.797,-21011.516
1226927.627052523,-101504.48,-119913.984,-28482.627,-25902.223,-32379.111,-29198.73,-21929.281,-21042.36
1226927.6310525201,-101500.94,-119908.49,-28481.812,-25901.531,-32383.098,-29198.04,-21921.062,-21029.744
1226927.635052517,-101478.27,-119890.79,-28483.195,-25896.484,-32386.15,-29198.975,-21897.625,-20989.87
1226927.6390525142,-101472.66,-119889.53,-28488.242,-25894.287,-32380.738,-29197.633,-21889.404,-20972.453
1226927.6430525114,-101489.1,-119907.84,-28488.934,-25897.422,-32380.412,-29195.639,-21909.424,-21005.818
1226927.6470525085,-101506.06,-119921.266,-28485.557,-25902.832,-32381.35,-29195.11,-21932.293,-21045.248
1226927.6510525057,-101501.67,-119912.6,-28484.295,-25902.06,-32384.807,-29197.266,-21927.531,-21034.994
1226927.6550525029,-101479.945,-119892.664,-28486.816,-25897.666,-32390.627,-29196.86,-21904.014,-20989.543
1226927.6590525,-101472.05,-119889.24,-28490.764,-25896.648,-32390.504,-29193.564,-21890.016,-20967.488
1226927.6630524972,-101487.47,-119902.914,-28491.049,-25899.62,-32388.43,-29190.023,-21906.455,-21000.408
1226927.6670524944,-101505.91,-119912.36,-28489.828,-25902.549,-32388.469,-29190.064,-21927.451,-21029.176
1226927.6710524915,-101501.95,-119905.32,-28489.666,-25903.2,-32393.963,-29191.732,-21921.754,-21019.531
1226927.6750524887,-101481.61,-119887.29,-28491.172,-25899.09,-32393.88,-29190.43,-21894.98,-20977.01
1226927.6790524859,-101479.945,-119884.52,-28491.09,-25896.648,-32391.48,-29189.414,-21889.16,-20969.158
1226927.683052483,-101492.39,-119901.164,-28486.045,-25899.578,-32389.121,-29186.85,-21905.193,-21004.191
1226927.6870524802,-101500.9,-119914.11,-28479.371,-25903.402,-32390.707,-29185.223,-21920.451,-21028.605
1226927.6910524773,-101496.3,-119904.664,-28475.098,-25903.32,-32393.312,-29186.402,-21913.494,-21016.48
1226927.6950524745,-101475.71,-119886.64,-28471.844,-25897.217,-32391.807,-29187.705,-21887.656,-20979.004
1226927.6990524717,-101467.37,-119880.45,-28471.72,-25893.271,-32388.592,-29188.682,-21877.117,-20961.752
1226927.7030524688,-101485.31,-119896.695,-28472.047,-25894.654,-32387.127,-29185.791,-21897.137,-20991.049
1226927.707052466,-101506.59,-119912.6,-28470.256,-25899.781,-32389.771,-29184.734,-21917.277,-21013.916
1226927.7110524632,-101503.336,-119907.76,-28466.229,-25901.45,-32393.8,-29184.734,-21909.344,-20997.844
1226927.7150524603,-101482.42,-119890.266,-28468.994,-25898.072,-32395.469,-29185.467,-21882.977,-20956.38
1226927.7190524575,-101474.98,-119887.25,-28473.064,-25896.484,-32393.516,-29183.514,-21873.617,-20943.562
1226927.7230524546,-101493.66,-119905.27,-28470.541,-25898.805,-32392.986,-29179.973,-21891.357,-20976.686
1226927.7270524518,-101510.625,-119915.37,-28465.537,-25901.734,-32393.352,-29179.24,-21914.389,-21018.922
1226927.731052449,-101507.77,-119906.17,-28467.123,-25902.264,-32396.893,-29182.902,-21912.803,-21016.398
1226927.7350524461,-101488.33,-119889.37,-28469.482,-25897.91,-32401.45,-29186.24,-21890.098,-20971.72
1226927.7390524433,-101480.555,-119884.24,-28469.688,-25894.98,-32393.393,-29184.734,-21879.965,-20951.213
1226927.7430524405,-101502.52,-119901.734,-28468.588,-25898.398,-32389.975,-29181.234,-21896.12,-20975.586
1226927.7470524376,-101517.54,-119916.67,-28466.229,-25901.572,-32397.38,-29181.602,-21918.58,-21013.469
1226927.7510524348,-101510.664,-119912.56,-28465.658,-25902.467,-32406.332,-29184.367,-21916.342,-21014.771
1226927.755052432,-101492.805,-119898.85,-28468.223,-25899.09,-32407.879,-29189.617,-21898.846,-20989.055
1226927.759052429,-101487.555,-119896.9,-28472.697,-25896.404,-32403.605,-29191.123,-21895.184,-20978.963
1226927.7630524263,-101502.12,-119907.84,-28473.594,-25897.46,-32397.502,-29187.988,-21909.344,-21000.285
1226927.7670524234,-101519.01,-119919.16,-28470.867,-25901.855,-32400.596,-29189.902,-21929.973,-21027.873
1226927.7710524206,-101516.89,-119915.45,-28470.42,-25901.367,-32406.373,-29191.691,-21926.637,-21018.23
1226927.7750524178,-101497.07,-119899.17,-28473.877,-25898.113,-32407.105,-29195.03,-21905.07,-20984.822
